# XDI/1.0 GSE/1.0
# Scan-start_time: 2024-10-06T10:50:55
# Column.1: energy eV
# Column.2: I0_eh2
# Column.3: I1_eh2
# Column.4: IX_eh2
# Column.5: IR_eh2
# Column.6: c8
# Column.7: c9
# Column.8: fluo01
# Column.9: fluo02
# Column.10: fluo03
# Column.11: fluo04
# Column.12: fluo05
# Column.13: fluo06
# Column.14: fluo07
# Column.15: fluo08
# Column.16: fluo09
# Column.17: fluo10
# Column.18: fluo11
# Column.19: fluo12
# Column.20: fluo13
# Column.21: I0_eh1
# Column.22: I1_eh1
# Column.23: IX_eh1
# Mono.name: Si 111
# Mono.d_spacing: 3.134692
# Mono.notes: LNT cooled
# Beamline.name: BM08-LISA
# Facility.name: ESRF
# Facility.xray_source: Bending magnet
# ---------
# BraggEnergy I0_eh2 I1_eh2 IX_eh2 IR_eh2 c8 c9    fluo01   fluo02    fluo03 fluo04   fluo05   fluo06   fluo07   fluo08   fluo09    fluo10   fluo11   fluo12 fluo13 I0_eh1 I1_eh1 IX_eh1
 11725.764933  86318 166512  38304    0  0  0  835.40642  1585.7197  932.67425    0  1305.2542  1344.2133  1598.7324  1361.1084  1556.8622  1236.67440  1666.1619  1140.6836    0  11208    0 2000027
 11735.512060  86257 166868  38372    0  0  0  860.80874  1607.5662  963.58602    0  1400.0483  1309.8982  1743.2572  1408.7857  1485.4247  1264.58060  1699.4968  1039.9985    0  11197    0 2000029
 11745.331148  86183 167210  38390    0  0  0  891.45273  1637.1658  995.15625    0  1400.8163  1392.9324  1663.4804  1343.8670  1512.8657  3208.45320  1722.5431  1098.3202    0  11187    0 2000028
 11755.198478  86087 167470  38365    0  0  0  860.75142  1640.8189  895.47140    0  1391.2843  1370.9961  1695.5866  1427.7853  1569.5624  2868.95930  1726.1597  1070.6042    0  11174    0 2000029
 11765.078126  85994 167804  38355    0  0  0  860.51573  1629.9214  947.13211    0  1402.0142  1405.7196  1774.5718  1471.1782  1638.5722  2630.24120  1748.7714  1083.1545    0  11159    0 2000029
 11775.102805  85900 168073  38300    0  0  0  869.96449  1705.4027  927.20702    0  1501.6676  1522.7749  1698.7247  1532.7968  1633.6720  3409.86740  1796.0899  1109.7111    0  11145    0 2000028
 11785.011910  85793 168323  38332    0  0  0  965.84331  1765.3080  935.03564    0  1470.3651  1536.5005  1795.0272  1594.3003  1600.0715  1863.74570  1872.2372  1150.1515    0  11126    0 2000028
 11794.939462  85700 168629  38324    0  0  0  1015.52540  1856.8420  1070.67830    0  1554.3681  1580.4184  1999.5928  1685.5870  1830.2955  3055.34930  1949.1136  1133.5003    0  11110    0 2000028
 11804.858231  85615 168933  38314    0  0  0  1092.43310  1976.2595  1040.33310    0  1600.1228  1662.4733  2013.3188  1663.0269  1922.2086  3463.88610  2110.0598  1199.5087    0  11096    0 2000028
 11814.784829  85114 168444  38261    0  0  0  1093.79790  2225.6084  1170.17040    0  1873.6573  1930.8412  2236.5605  1893.3113  1998.9706  1978.32660  2320.3145  1269.3298    0  11031    0 2000028
 11824.751187  85433 169511  38361    0  0  0  1322.02210  2507.1763  1265.94030    0  1941.9848  2135.8761  2369.7901  2165.2410  2373.6753  3335.21890  2540.5615  1327.9346    0  11066    0 2000029
 11834.693486  85332 169774  38272    0  0  0  1515.99450  2881.3691  1452.97650    0  2444.2868  2406.1537  2711.7834  2547.3601  2722.7875  1980.54740  2912.4311  1542.6926    0  11047    0 2000028
 11844.623764  85226 169990  38228    0  0  0  1920.33590  3689.0030  1945.24810    0  3171.6999  3354.3130  3479.8469  3348.0548  3573.2338  1637.58710  3778.9068  1875.1809    0  11031    0 2000028
 11854.525103  85110 170126  38226    0  0  0  2902.27690  5523.1796  2812.33600    0  4547.2160  5038.6464  5128.6907  4869.7084  5297.2220  3067.74470  5868.7324  2620.8090    0  11011    0 2000028
 11859.505785  84933 169857  38173    0  0  0  3991.62950  7538.2989  3933.66250    0  6636.0079  6907.4430  7072.6556  7035.3621  7300.0971  3393.11150  7988.4600  3527.3675    0  10997    0 2000028
 11859.914276  84864 169710  38150    0  0  0  4108.04610  7795.4030  4045.35810    0  6595.4154  7008.2949  7301.7650  7267.8347  7525.8377  3419.11890  8094.9558  3589.0952    0  10988    0 2000028
 11860.344217  84803 169588  38196    0  0  0  4188.33480  8198.7083  4031.59100    0  6898.7346  7362.2569  7509.2957  7404.6790  8087.1238  3912.59540  8460.3852  3700.0903    0  10980    0 2000028
 11860.754296  84756 169477  38193    0  0  0  4346.25930  8313.7746  4407.55750    0  7014.0254  7604.4072  7787.0741  7714.3887  8133.9039  1135.23230  8807.9576  3826.7997    0  10970    0 2000028
 11861.127678  84745 169456  38174    0  0  0  4569.86160  8682.7875  4417.06690    0  7289.5962  7909.3278  8173.0660  7978.3555  8369.7832  2603.68420  9080.5097  3966.1422    0  10969    0 2000027
 11861.528630  84803 169552  38238    0  0  0  4732.72020  9058.7660  4654.01640    0  7791.8273  8177.3846  8382.6436  8440.6522  8914.8345  1519.83380  9611.1435  4146.2188    0  10976    0 2000028
 11861.889817  84889 169703  38160    0  0  0  4967.56440  9251.9620  4774.27220    0  8013.5686  8397.7391  8578.6789  8696.8723  9037.8100  3527.09480  9825.4136  4259.0860    0  10985    0 2000028
 11862.278576  84943 169798  38217    0  0  0  5130.07470  9610.0107  5085.17560    0  8408.7158  9040.1155  8989.3790  8900.6693  9267.5040  3965.91470 10192.0810  4256.0548    0  10990    0 2000029
 11862.691853  84958 169817  38238    0  0  0  5328.13430 10054.2560  5300.96280    0  8768.6022  9207.9514  9490.0842  9374.2475  9798.1346  2973.35810 10635.9710  4439.5072    0  10996    0 2000028
 11863.103629  84964 169801  38167    0  0  0  5423.94590 10512.5480  5501.16460    0  9056.9654  9562.5008  9792.9594  9890.3029 10054.8340  4161.21640 11272.9000  4679.2217    0  10995    0 2000027
 11863.524618  84963 169787  38246    0  0  0  5942.24130 11083.0920  5790.62390    0  9648.7385 10222.5180 10278.8190 10333.4530 10802.6100  4784.83670 11954.7040  4987.0385    0  10998    0 2000029
 11863.873680  84960 169766  38188    0  0  0  6035.00500 11540.8750  5940.90520    0  9915.7577 10688.7530 10878.9890 10788.6660 11517.3130  4207.44550 12249.9650  5108.2517    0  10995    0 2000028
 11864.228887  84959 169734  38176    0  0  0  6496.64170 12343.8120  6417.98480    0 10694.8100 11293.0530 11633.9420 11604.8350 11730.4920  4517.57980 13062.1370  5400.4359    0  10996    0 2000028
 11864.607084  84958 169675  38290    0  0  0  6528.58790 12715.1110  6561.36030    0 10998.3050 11787.7980 11774.6680 11960.9420 12166.3180  4890.38660 13648.3970  5688.6770    0  10994    0 2000028
 11865.015932  84946 169640  38197    0  0  0  7321.52030 13561.6820  6999.64590    0 11786.5720 12612.1670 12615.5490 13005.0940 13475.3120  5962.42480 14599.5870  5956.0654    0  10993    0 2000028
 11865.483002  84949 169589  38191    0  0  0  7640.95040 14419.3730  7366.93980    0 12459.1340 13395.5830 13466.9830 13693.7650 14220.9960  4329.10680 15206.3490  6505.5282    0  10994    0 2000027
 11865.861280  84943 169535  38248    0  0  0  8209.78980 15140.5160  7871.57380    0 13420.7570 13919.9890 14111.1450 14424.9430 15218.2800  674.68023 16248.1590  6749.6611    0  10997    0 2000028
 11866.215077  84934 169417  38199    0  0  0  8606.17350 16556.8040  8458.75260    0 14144.6800 14989.5660 15002.8930 15328.1990 15836.6140  2409.80190 17422.1910  6996.4507    0  11004    0 2000029
 11866.564299  84920 169363  38214    0  0  0  9207.03230 17595.3550  9195.84250    0 15271.4120 15900.8790 16287.7400 16226.9140 16863.0960  2542.67140 18645.3850  7485.2281    0  11023    0 2000028
 11866.933456  84901 169262  38265    0  0  0  9662.21090 18792.0650  9758.82010    0 16416.6280 17192.8760 17457.7110 17356.3660 18117.6990  2358.50940 19829.2250  8060.1049    0  11021    0 2000028
 11867.334806  84896 169124  38157    0  0  0 10801.35500 20146.3780 10502.01600    0 17798.4770 19043.4760 18553.7440 19180.1840 19567.4510  3784.49320 21566.1090  8813.6795    0  11017    0 2000028
 11867.811255  84895 169033  38218    0  0  0 11363.18600 22226.2720 11567.59500    0 19281.6360 20488.9700 20593.9020 21143.0340 21701.6790  8078.43050 23353.1610  9498.6323    0  11015    0 2000028
 11868.209601  84936 168975  38392    0  0  0 12810.10400 24518.0720 12775.26400    0 21176.4770 22956.3290 22739.5170 23097.5320 23773.3600  8462.83670 26115.5750 10259.3130    0  11020    0 2000028
 11868.574265  84930 168805  38319    0  0  0 13924.22100 26871.0800 14043.38100    0 23342.7350 24936.2080 24840.7130 25577.8050 26424.1230  6617.13650 28326.3730 11584.0680    0  11020    0 2000028
 11868.932822  84929 168591  38310    0  0  0 15993.83700 30012.6900 15882.23800    0 26502.0140 27851.9580 27413.5640 28428.1350 29484.3580  2355.34680 31703.6300 12836.8240    0  11018    0 2000028
 11869.308259  84915 168326  38328    0  0  0 17554.16600 33894.1290 17485.73100    0 29665.4940 31361.7470 31158.5540 31896.6220 32993.2840  1707.09300 35639.9800 14240.7710    0  11017    0 2000028
 11869.766477  84909 167939  38236    0  0  0 20465.28000 39767.0370 20632.47100    0 34881.9750 36581.9050 36555.2990 37471.8530 38336.0470  5410.79240 41715.3820 16512.1180    0  11014    0 2000028
 11870.195610  84899 167502  38233    0  0  0 24085.54200 46708.0110 24246.81200    0 40332.4000 43113.9040 42185.8740 43733.1000 44897.4880 13412.76300 49004.3270 19361.2100    0  11014    0 2000028
 11870.601782  84895 166897  38238    0  0  0 29111.21300 55482.1320 28854.12000    0 48331.7230 51474.2240 50460.0210 52051.7980 53842.3110 10635.21800 58150.5790 23287.2360    0  11016    0 2000028
 11870.977326  84886 166087  38165    0  0  0 35445.23300 67772.4010 35331.31300    0 59078.1080 63211.8430 61671.2230 63669.7620 66145.7290 18248.12100 70592.5570 28329.7110    0  11013    0 2000029
 11871.332964  84871 164957  38221    0  0  0 43615.21200 83275.6330 43613.86900    0 73940.7850 79092.6630 76383.3790 78566.3310 80010.6530 20407.19500 87310.6690 34855.2610    0  10970    0 2000028
 11871.743815  84863 163295  38094    0  0  0 56339.97300 107235.2900 56223.98800    0 95811.5640 101655.6700 98027.0770 101958.0800 103903.2300 33386.76300 111773.7300 44873.9780    0  10968    0 2000028
 11872.137830  84859 161467  38076    0  0  0 69914.29400 134236.0600 70764.75200    0 119990.9100 125971.5200 122195.5700 126406.2300 128943.1300 52506.30300 139239.3000 56485.4130    0  10967    0 2000028
 11872.561004  84856 159324  38095    0  0  0 87781.64400 165709.2700 86815.35000    0 146607.2700 155952.0600 149750.0100 156216.9900 158909.8900 72791.31300 171660.0100 70236.8240    0  10964    0 2000028
 11872.971941  84845 157021  37991    0  0  0 106071.40000 198170.8300 105873.75000    0 176439.7500 186879.4200 180571.3500 186633.0600 190809.6800 94678.40400 205145.5000 84897.7360    0  10962    0 2000028
 11873.346103  84826 154927  37986    0  0  0 119928.78000 226916.3800 122152.30000    0 201981.5300 214250.9500 208375.8700 213668.3100 216516.3500 35825.98800 236533.5500 96542.5410    0  10966    0 2000028
 11873.701886  84820 153185  37998    0  0  0 132730.36000 253717.8200 136771.55000    0 224265.9100 237883.6700 232633.5600 238428.6300 239228.9800 36657.05200 263091.5300 107922.9100    0  10960    0 2000028
 11874.108302  84800 151944  37909    0  0  0 146217.62000 272092.1400 146502.88000    0 241976.2400 256765.6500 250086.3400 255974.6500 260108.2800 57996.90300 282518.3500 119637.5600    0  10958    0 2000029
 11874.493273  84787 151462  37915    0  0  0 148020.15000 282493.3700 151531.42000    0 250419.7900 264179.8500 258167.0200 264682.5500 265957.0600 14814.91300 291681.1400 122507.4600    0  10957    0 2000028
 11874.910481  84753 151321  37891    0  0  0 149966.33000 288178.4100 155837.49000    0 254816.7900 269279.3600 263073.0100 269522.5100 270406.0500 33842.44100 297409.6300 122398.5200    0  10952    0 2000028
 11875.327720  84711 151212  37853    0  0  0 154382.08000 294841.8800 159568.60000    0 260179.4000 275624.8500 269082.6400 274777.8700 275742.0600 113099.18000 304078.7000 127738.8700    0  10948    0 2000028
 11875.711237  84647 150816  37919    0  0  0 160373.02000 302856.7700 161926.95000    0 268093.9700 282800.5300 277566.4500 281400.6400 286427.4300 50154.14600 312009.8600 134898.9000    0  10938    0 2000028
 11876.113190  84456 149551  37979    0  0  0 171787.31000 324723.3500 174310.92000    0 286327.7300 304097.6400 297557.2100 302382.7800 306837.4600 139602.87000 335444.9200 144408.5900    0  10918    0 2000029
 11876.472209  84099 147673  37906    0  0  0 183492.25000 349035.9500 188262.86000    0 305720.5800 325553.8200 318199.5400 325931.3800 328622.2600 70014.50100 357814.3500 154035.8600    0  10875    0 2000028
 11876.857336  83870 145701  37968    0  0  0 197802.01000 377942.9800 204199.99000    0 333186.2000 351705.3200 343582.5200 350681.0500 354646.2900 31016.42500 385984.5800 168174.5200    0  10866    0 2000028
 11877.277782  83751 144047  38125    0  0  0 212492.17000 405009.2200 219372.02000    0 355414.1800 376905.9100 367483.4300 376927.7400 378673.1800 117729.22000 411018.7600 178434.7100    0  10872    0 2000028
 11877.705931  83696 143005  38068    0  0  0 225155.83000 425267.7000 230258.98000    0 371254.0700 394342.5600 383684.6900 391915.7100 398963.2500 87311.99800 428607.6400 190797.8900    0  10863    0 2000028
 11878.101882  83713 143021  38147    0  0  0 222237.87000 422266.2400 230156.54000    0 374130.0300 393867.6200 382628.4100 394591.8900 396278.3300 47828.01000 426993.2100 188817.3200    0  10867    0 2000028
 11878.517813  83905 144414  38168    0  0  0 213996.20000 411822.4500 223333.76000    0 362068.4400 381695.3900 373698.5600 383438.5300 381277.0300 33809.20200 416853.6600 179487.2700    0  10890    0 2000028
 11878.886190  84122 146449  38179    0  0  0 199042.84000 386549.0700 209005.02000    0 338750.3600 359111.9600 352056.8600 358991.6100 356752.5000 28533.88400 394476.4100 168953.1800    0  10918    0 2000028
 11879.276081  84227 148623  38256    0  0  0 185788.95000 352563.0300 188766.52000    0 308438.3000 326249.3600 319547.7000 327207.5300 329802.0600 160801.25000 358971.6700 158049.4500    0  10926    0 2000029
 11879.701306  84283 150651  38275    0  0  0 165280.82000 316749.1800 170364.16000    0 278181.5900 296837.0300 289348.0700 295988.3000 298575.7900 140769.03000 326098.2300 140354.8400    0  10933    0 2000028
 11880.131168  84252 152182  38305    0  0  0 147937.90000 288702.4300 155070.96000    0 254373.7000 268744.3600 264615.2700 268860.1500 268711.7500 135469.67000 297523.2500 125383.2900    0  10933    0 2000029
 11880.528818  84221 153354  38323    0  0  0 139273.29000 267807.9500 142867.36000    0 236261.9100 248861.6800 245661.8200 249352.9400 251257.3400 103412.11000 275801.5200 117272.3300    0  10932    0 2000028
 11880.940315  84234 154356  38284    0  0  0 131965.24000 249848.3700 133622.29000    0 220900.7000 232051.6300 229088.2300 233673.2500 237588.9900 114184.74000 257721.6800 110166.7900    0  10934    0 2000029
 11881.299631  84285 155009  38318    0  0  0 125901.95000 241328.7000 128375.25000    0 211992.9700 224143.9400 220612.7200 223185.6100 225292.7800 115026.42000 247320.3100 104612.7200    0  10936    0 2000028
 11881.678932  84417 155613  38365    0  0  0 122225.84000 233848.5600 124711.43000    0 207399.1300 219141.1800 214859.5300 219336.6700 222456.8000 109220.18000 241572.3900 102990.8100    0  10950    0 2000028
 11882.087438  84551 156059  38323    0  0  0 120002.78000 231808.0400 122942.63000    0 204741.7400 215361.8700 211312.3500 215794.1500 218728.7400 113202.56000 240554.8400 101622.4200    0  10969    0 2000029
 11882.515939  84675 156395  38313    0  0  0 117603.20000 229335.5000 122426.63000    0 202057.3100 213977.9000 209938.8700 214547.4700 215395.8000 112901.82000 235746.4700 98216.9680    0  10974    0 2000028
 11882.918360  84710 156550  38403    0  0  0 120393.04000 228143.1300 120943.97000    0 201849.0300 211829.2900 207333.8700 213970.6800 216176.2500 109043.36000 233614.0300 100579.7200    0  10980    0 2000028
 11883.333097  84703 156593  38303    0  0  0 118604.97000 228185.6100 121085.69000    0 201674.0600 212782.0900 208777.5900 212300.6100 215671.2000 109614.80000 232973.6600 99770.9960    0  10941    0 2000028
 11883.689487  84696 156642  38336    0  0  0 115775.18000 225383.4600 120585.86000    0 199112.4600 208943.3700 206988.0300 211096.6100 210250.4400 107181.36000 231605.6100 95864.7410    0  10941    0 2000028
 11884.056652  84690 156673  38385    0  0  0 117179.98000 226344.6000 119884.14000    0 198763.8900 210264.9900 206909.8400 209915.5800 211422.1400 108583.43000 231684.2000 96374.6110    0  10972    0 2000027
 11884.456106  84676 156725  38358    0  0  0 119617.56000 225358.1200 119688.83000    0 199474.7900 210817.2600 207308.1500 211003.3500 213851.9000 112201.50000 231754.2000 99457.5450    0  10983    0 2000028
 11884.875561  84665 156787  38351    0  0  0 115787.43000 223462.9700 118422.59000    0 198191.4900 207400.2100 204115.2600 208320.3200 210099.9300 107205.77000 229942.7700 95970.7610    0  10981    0 2000029
 11885.279680  84657 156861  38348    0  0  0 115138.47000 222268.0300 118420.22000    0 194753.1300 206016.5400 202407.3300 207633.9500 207691.4600 107864.07000 227755.4700 94879.6340    0  10981    0 2000028
 11885.699195  84644 156960  38317    0  0  0 114246.40000 220710.4300 117765.55000    0 194644.4900 205605.1300 200150.5900 205230.4200 206877.9700 90352.91500 226188.0600 95230.4070    0  10975    0 2000028
 11886.052655  84637 157033  38293    0  0  0 113976.62000 217885.3200 116039.11000    0 192649.1300 203237.4400 199172.1300 202873.3500 207469.8800 105707.28000 224871.1300 95197.0390    0  10976    0 2000028
 11886.419969  84644 157154  38422    0  0  0 113570.10000 216986.6900 116133.16000    0 192294.4200 202405.5400 198726.7000 203975.3100 205907.5000 95152.82000 225036.2900 94678.8010    0  10977    0 2000028
 11886.814972  84622 157214  38357    0  0  0 113195.27000 215322.4400 115140.70000    0 191362.4200 200257.5500 196580.5400 201651.4400 205087.0000 86640.99600 222267.1400 95115.5440    0  10978    0 2000029
 11887.245357  84602 157268  38356    0  0  0 113130.09000 215470.0200 114809.15000    0 190076.6400 200548.2100 197095.4900 200830.5100 203489.6600 104615.18000 221146.0700 93266.3230    0  10973    0 2000028
 11887.668086  84584 157314  38294    0  0  0 110564.59000 213005.0900 113248.81000    0 187083.4300 198315.4700 194355.0600 199209.9900 199820.2200 101917.11000 218312.9500 91461.8760    0  10944    0 2000029
 11888.101608  84576 157382  38273    0  0  0 112212.99000 213722.4100 113389.42000    0 189707.4200 200100.2000 195779.8900 199884.2500 202720.1800 101779.15000 219727.6400 94019.0520    0  10927    0 2000028
 11888.465975  84558 157405  38284    0  0  0 110646.48000 210456.8300 111794.83000    0 186931.5300 197610.5200 193018.1800 196666.9600 200343.4200 72981.43900 217174.1100 92648.1040    0  10926    0 2000028
 11888.841128  84543 157410  38247    0  0  0 108875.88000 212109.4500 112532.64000    0 187399.5500 197444.2600 194104.1600 198608.6500 200618.3000 93750.56600 218478.4500 91651.6740    0  10921    0 2000027
 11889.240908  84526 157395  38237    0  0  0 108852.32000 210995.8600 112875.86000    0 186753.7100 196617.8300 192359.7800 196547.0000 197118.4600 45368.18500 216394.0100 90529.1640    0  10917    0 2000028
 11889.668395  84501 157380  38178    0  0  0 111631.11000 211102.6500 111869.83000    0 187412.1600 197114.8600 192696.7800 197944.4700 201043.9400 91312.23300 217906.7600 92701.3310    0  10917    0 2000028
 11890.089762  84483 157365  38080    0  0  0 109324.52000 211932.3500 112100.20000    0 186649.9600 196336.0500 192627.3500 197702.3100 199612.3100 93407.17100 217085.6400 91829.1480    0  10916    0 2000029
 11890.481936  84445 157330  38010    0  0  0 109488.18000 209620.3500 111704.26000    0 185652.9500 197160.7100 192918.4500 197686.6600 198795.5000 89493.98100 217066.4700 91213.5600    0  10913    0 2000027
 11890.886442  84418 157307  37889    0  0  0 109393.61000 208676.2800 110806.85000    0 184808.1100 194719.2200 191607.3600 195668.8300 197864.9700 101875.19000 215940.4900 90577.5730    0  10911    0 2000028
 11891.247907  84382 157276  37787    0  0  0 109301.09000 209790.7800 111205.23000    0 185456.8900 196005.5800 191117.8200 195846.5600 198719.5000 93813.70100 215683.1100 90786.3780    0  10918    0 2000028
 11891.635544  84333 157195  37757    0  0  0 109353.70000 209945.1900 111645.21000    0 185157.8000 194570.3300 191774.4600 195559.3100 198025.3400 46059.83400 214743.0300 91099.2400    0  10947    0 2000028
 11892.055514  84270 157150  37699    0  0  0 110678.09000 209743.9700 111081.71000    0 185377.6300 195546.5800 190540.6000 195736.5700 199476.7700 96446.24100 215247.2800 92512.2610    0  10934    0 2000029
 11892.478590  84173 157003  37725    0  0  0 107559.93000 208144.9800 110689.91000    0 183532.4900 193576.7400 190205.0900 194863.4000 196409.9200 103491.97000 213609.3300 90448.2830    0  10921    0 2000028
 11892.867848  84051 156825  37795    0  0  0 107235.94000 206138.4500 109497.61000    0 181364.7800 192275.2700 187765.1200 193013.8300 193674.6700 102247.04000 211678.7000 88115.4170    0  10903    0 2000027
 11893.277135  83852 156546  37888    0  0  0 107653.32000 205122.1800 108401.40000    0 180698.8900 190613.2700 186415.4900 191033.2500 193356.3600 84867.48100 210616.5600 89163.6700    0  10876    0 2000028
 11893.635669  83533 155982  37999    0  0  0 107173.55000 202729.1600 107347.05000    0 179738.0900 189615.5100 185120.6200 190077.0200 193521.0800 90927.42700 209778.2300 88671.3300    0  10837    0 2000028
 11894.014230  82853 154756  38108    0  0  0 105144.12000 199051.7900 106115.81000    0 177384.6900 187056.1900 182692.8300 187454.8700 189722.6600 93703.75400 207099.7400 86919.7200    0  10756    0 2000028
 11894.428214  81783 152791  38110    0  0  0 101415.51000 196749.9000 103448.99000    0 172751.8800 183344.7100 178468.4100 183578.5900 184236.2500 71988.95000 201783.1900 83599.1270    0  10627    0 2000028
 11894.853001  81142 151667  38213    0  0  0 101881.61000 195208.5100 102862.51000    0 172531.8400 181742.9300 177742.0900 182709.9200 184498.4300 87261.68400 201505.8600 84435.0020    0  10557    0 2000028
 11895.250113  81174 151834  38316    0  0  0 101094.71000 191804.9400 101799.87000    0 170828.5200 180113.7300 174242.7700 180539.1900 183307.5300 42018.68800 198058.4200 84056.4830    0  10560    0 2000028
 11895.619543  81749 152964  38354    0  0  0 100579.87000 193355.1500 103119.93000    0 171927.2700 180496.5600 176313.2300 180653.9900 182867.5700 83782.82600 199079.1500 82999.5490    0  10630    0 2000028
 11896.021324  82810 155064  38421    0  0  0 100110.90000 194194.5800 103405.00000    0 172141.1600 182387.2900 176763.2000 182005.6600 182757.1600 94345.88600 200066.7400 83159.4240    0  10756    0 2000028
 11896.401580  83808 156992  38527    0  0  0 103437.61000 196964.2700 104592.98000    0 173549.2400 183678.7200 178580.3300 184697.8700 186630.6000 91682.24700 203561.8900 85207.5480    0  10869    0 2000029
 11896.812653  84448 158254  38525    0  0  0 102683.95000 197433.0700 104940.95000    0 174981.4700 183453.8600 178857.1100 185002.0900 185852.0100 91971.87900 202632.5700 84993.4870    0  10947    0 2000028
 11897.245312  84691 158746  38578    0  0  0 103256.46000 197668.3600 104780.34000    0 174763.1600 184688.2200 178567.3300 184720.9200 187398.7500 89866.29800 202889.4100 86721.7550    0  10978    0 2000028
 11897.656444  84719 158855  38531    0  0  0 102688.35000 196754.5700 103912.85000    0 173326.3800 183193.5700 177404.1300 183779.5200 186539.6700 93048.89000 201596.2900 85319.4770    0  10981    0 2000029
 11898.035265  84708 158899  38539    0  0  0 100696.91000 195564.3800 102957.57000    0 172231.0800 182625.6300 177785.3100 182348.1600 183456.0200 93182.93600 200343.0100 83662.6620    0  10978    0 2000028
 11898.400251  84689 158915  38540    0  0  0 102087.39000 195121.2100 103447.06000    0 171785.2800 181307.1200 176687.5000 183088.6000 184395.9400 91331.81300 199831.1200 84178.3470    0  10974    0 2000028
 11898.831486  84675 158954  38519    0  0  0 102522.16000 193329.9200 102751.39000    0 171775.1600 182120.7200 176342.9900 180814.6800 185827.2500 88481.71200 200176.1400 86432.2420    0  10968    0 2000028
 11899.242730  84652 158957  38531    0  0  0 98384.44900 191860.5600 101829.69000    0 169241.3300 178803.6000 175095.0400 179843.2900 179624.1400 93845.35000 197788.1800 82145.3910    0  10969    0 2000028
 11899.677108  84636 159018  38551    0  0  0 99324.80200 192303.3900 101789.34000    0 169695.8800 179304.9400 175583.0000 180520.0800 181705.1800 94170.69400 197646.5600 82190.7170    0  10967    0 2000028
 11900.093032  84626 159029  38572    0  0  0 99202.57500 191562.8100 100988.62000    0 168239.5600 178392.2700 172461.7500 177883.9100 180527.7000 93504.82300 194538.6900 83255.9190    0  10964    0 2000029
 11900.470471  84606 159081  38557    0  0  0 99040.73200 189874.9400 100991.72000    0 167900.1100 177000.6100 173559.6500 178351.0700 178753.3600 91822.05600 195082.1100 81694.9710    0  10965    0 2000028
 11900.829445  84595 159131  38612    0  0  0 98714.22900 188342.6300 99606.75400    0 166091.9000 176046.0000 171595.4100 176476.8800 177629.0000 87265.80700 193461.2500 80876.3320    0  10962    0 2000028
 11901.199226  84582 159154  38533    0  0  0 97189.62400 186439.1100 98783.30800    0 165568.6300 175112.5200 170493.2300 175737.5200 177863.7700 85623.20000 193515.9400 80560.2560    0  10961    0 2000028
 11901.641454  84572 159262  38559    0  0  0 96228.65600 186688.0500 99007.97500    0 165121.6900 173793.1700 168981.2300 175509.2000 175520.6000 89276.14200 191774.7700 79761.6380    0  10961    0 2000027
 11902.069846  84563 159322  38606    0  0  0 96690.18800 185450.7100 98118.20200    0 164078.4700 172085.0500 169443.1900 173334.8500 174531.2600 92019.39000 190191.1600 79644.6070    0  10960    0 2000029
 11902.484399  84552 159375  38555    0  0  0 97272.22800 184529.4900 97553.03000    0 163419.7800 172707.8500 167260.2200 173066.8100 174850.9100 89709.96700 189297.0000 80899.6170    0  10957    0 2000028
 11902.861991  84536 159418  38538    0  0  0 94333.92400 182581.6000 97392.61800    0 162764.7400 170747.5400 166944.7800 170467.3000 173217.5000 89424.18600 188232.7000 79349.3720    0  10950    0 2000028
 11903.219570  84533 159515  38543    0  0  0 93654.01100 180776.4600 95226.05100    0 160033.9200 169279.6300 164572.2900 169582.3200 170968.8000 81876.40200 185643.5400 77162.0640    0  10953    0 2000028
 11903.580254  84520 159592  38578    0  0  0 92809.29100 177895.5400 94409.12800    0 157789.3200 167361.0800 162571.5000 167374.4400 168773.0000 86280.73600 183632.1200 77693.6080    0  10951    0 2000028
 11903.964082  84507 159676  38534    0  0  0 93440.45500 178480.4700 94220.02600    0 156937.9000 165334.7400 161706.1400 166089.6800 169780.3100 87395.90600 182106.2600 77511.0700    0  10952    0 2000028
 11904.221524  84503 159704  38550    0  0  0 91721.92000 176313.9200 93362.39200    0 156200.3300 165148.4000 160408.4500 165265.9000 167830.4300 87360.67300 181774.8200 75967.3190    0  10947    0 2000028
 11905.289949  84478 159971  38609    0  0  0 89358.69300 172262.5200 90575.46700    0 151853.8600 160436.0500 156467.4000 160998.2300 162361.7300 85753.48000 176193.4300 73952.6490    0  10945    0 2000028
 11906.341606  84446 160227  38556    0  0  0 87605.72700 167518.0800 88317.39300    0 147946.2300 155547.5400 151663.3000 156138.9500 158963.4100 82837.70000 170958.5700 72697.2100    0  10942    0 2000028
 11907.487539  84376 160404  38511    0  0  0 83813.92600 162328.9100 86355.12400    0 144010.3900 152918.1000 148130.3000 152495.7000 154397.8200 79555.30600 167304.6300 69860.3900    0  10933    0 2000028
 11908.601299  84322 160574  38534    0  0  0 81295.10000 158459.5800 83279.40100    0 140609.9600 148170.4900 143589.8600 148120.1200 149601.3100 65847.18400 162560.5100 67693.8490    0  10924    0 2000028
 11909.792423  84366 160846  38531    0  0  0 81788.94800 156007.9700 82608.38000    0 138292.2600 145414.2000 142080.1500 146791.7900 148518.3700 75416.49200 160379.9400 67282.6830    0  10930    0 2000029
 11910.898903  84334 160921  38519    0  0  0 78228.77100 152490.4400 80994.77100    0 135013.9100 143051.4000 139564.9200 142662.7700 143462.5900 74438.95800 157426.9000 64847.8190    0  10927    0 2000027
 11912.112104  84335 161023  38524    0  0  0 78245.60300 152166.5500 80113.88800    0 134437.7900 142485.5700 137185.3300 143224.5100 142922.8300 75356.88100 156997.8900 64317.6850    0  10927    0 2000028
 11913.268429  84349 161104  38559    0  0  0 80104.54500 152968.5500 80030.11800    0 136065.8300 142804.9300 139111.6100 142921.7900 146081.1600 74004.75400 157833.2400 66604.1830    0  10927    0 2000028
 11914.509917  84311 161028  38467    0  0  0 80592.29300 153602.0900 80662.08000    0 135349.1100 142776.5500 138325.5900 142653.9600 146096.5400 59223.75600 156481.7400 66674.1840    0  10924    0 2000028
 11915.686794  84292 160941  38497    0  0  0 79454.95600 153949.0400 80957.55900    0 136091.6200 143951.0700 139504.1700 143432.6900 145762.4000 71620.75100 158083.6900 65105.3070    0  10922    0 2000028
 11917.002951  84276 160862  38483    0  0  0 81304.00500 156250.6800 82130.44500    0 139150.5200 146081.5400 140743.9200 146503.2200 147087.1700 29728.84200 160597.7400 66802.6780    0  10921    0 2000028
 11918.249865  84260 160774  38427    0  0  0 83032.26100 156897.0400 83292.84900    0 139005.2200 146683.7800 142372.9000 147483.6200 150009.5600 32565.39000 162365.3600 68148.5810    0  10919    0 2000029
 11919.588235  84243 160663  38456    0  0  0 83621.27000 160012.0400 84189.71000    0 141279.7200 148724.7700 144074.9700 150035.1300 152542.3900 26328.28400 164152.9000 69332.9340    0  10919    0 2000028
 11920.852703  84226 160553  38484    0  0  0 84173.11200 160984.1900 84966.56200    0 143003.2900 150659.7500 145782.5200 150892.1700 151813.9600 24395.45000 165771.9700 69119.1150    0  10913    0 2000027
 11922.273622  84202 160422  38415    0  0  0 83612.28000 164143.7200 86037.73500    0 144997.9600 152578.2900 148675.0600 152130.9100 153959.5500 52768.37600 168585.4000 69207.7860    0  10913    0 2000028
 11923.503094  84186 160284  38439    0  0  0 87124.80200 165569.6900 86843.25200    0 146416.0300 154305.1300 149624.4800 154547.4400 156932.7700 48336.24700 169316.6700 71921.1670    0  10908    0 2000028
 11924.920013  84164 160162  38399    0  0  0 87145.38600 167912.2200 88500.28600    0 148612.2800 156134.1000 151887.9000 156082.6800 158991.3600 17323.16600 171792.4800 72715.6080    0  10899    0 2000028
 11926.264545  84131 160030  38388    0  0  0 88377.13000 169870.9200 89908.49200    0 150146.0200 158190.2100 153719.3700 159424.9200 161451.6300 44061.12100 174496.4000 73883.7370    0  10898    0 2000029
 11927.737850  84117 159903  38431    0  0  0 89563.29900 172132.4500 91223.63600    0 152937.4000 161513.9100 156012.2800 161766.0500 163900.2900 47119.39300 177540.7900 74419.6480    0  10898    0 2000028
 11929.157337  84085 159749  38361    0  0  0 90818.73200 174900.3500 92428.50900    0 155777.0400 163254.2100 159255.1000 163492.4000 166332.1100 78901.29400 179734.0500 75086.1780    0  10896    0 2000028
 11930.555488  84076 159599  38333    0  0  0 92429.03800 177136.9900 93754.29700    0 155909.7200 165249.2700 160717.4100 165334.6300 167040.9000 73993.01900 181151.5500 76274.2250    0  10892    0 2000027
 11932.063944  84039 159439  38383    0  0  0 94751.70100 180156.2100 95000.42000    0 159917.6300 167971.1300 162946.6500 168707.3700 172088.4800 85168.80300 184597.3900 78571.2180    0  10887    0 2000029
 11933.487575  84019 159331  38307    0  0  0 93845.37600 182236.8000 97089.04200    0 161021.7100 169943.4600 165373.4500 170916.3900 171833.3000 88530.84600 186264.2700 77608.8760    0  10886    0 2000029
 11934.995233  83965 159100  38311    0  0  0 95881.57200 184644.5200 98050.55300    0 163796.6600 173441.5400 167835.5900 173389.0500 175130.7600 85846.61700 190255.3900 78969.0640    0  10878    0 2000029
 11936.472276  83778 158674  38354    0  0  0 98210.42000 186543.7800 98602.19800    0 166330.9700 174438.8600 170243.1900 175117.8600 178624.7400 91695.74400 194215.7800 81517.0440    0  10855    0 2000028
 11938.041169  84010 158998  38304    0  0  0 100614.80000 190021.0800 99952.25700    0 169186.0700 177522.8800 172094.4700 178408.1600 182713.3900 93430.58000 195549.8400 83089.3410    0  10885    0 2000028
 11939.667863  83994 158878  38304    0  0  0 101350.40000 193346.7700 102495.89000    0 171544.6700 180851.0600 175452.4200 180826.9800 183705.8500 95320.63000 198662.9100 84819.8000    0  10880    0 2000028
 11941.150733  83982 158801  38354    0  0  0 101436.00000 195587.2300 104032.71000    0 172615.6500 182716.7000 177556.5000 181940.9500 184464.4000 94553.82000 200562.3900 83547.0940    0  10878    0 2000029
 11942.725528  83961 158732  38306    0  0  0 102906.84000 197767.6700 104396.91000    0 173909.2400 183184.6900 178498.4200 183213.0800 186307.4200 91675.49100 202408.1100 85786.4210    0  10874    0 2000028
 11944.339548  83939 158698  38331    0  0  0 104356.49000 196774.7100 103893.00000    0 173711.0700 183859.7100 178176.4400 183798.4100 186639.0400 76424.99800 201068.6600 86819.4400    0  10870    0 2000028
 11945.932274  83918 158652  38290    0  0  0 103002.78000 198062.0900 105274.19000    0 174558.8700 184946.7600 179752.4700 184596.2400 186255.9200 91537.83900 203801.9700 86158.4320    0  10866    0 2000028
 11947.610847  83900 158631  38204    0  0  0 103350.35000 199808.9500 106797.91000    0 176794.6100 187254.7200 181979.3100 187101.6800 189748.9300 97433.41200 206268.2000 86595.2440    0  10861    0 2000029
 11949.300772  83887 158675  38274    0  0  0 104052.34000 199728.9900 106170.77000    0 176784.5600 186053.9000 182142.5100 186621.3900 189063.0500 97983.79700 205986.4800 87377.4270    0  10856    0 2000028
 11950.936795  83875 158700  38309    0  0  0 104683.31000 199840.7300 106617.57000    0 176800.2100 185982.1300 181741.4600 187365.8800 188877.5200 89304.82300 205705.1400 87380.5200    0  10856    0 2000028
 11952.663425  83852 158761  38246    0  0  0 104878.31000 199659.8900 105888.78000    0 176548.3400 186592.8300 180995.1700 186702.8600 189926.9400 91975.07600 204332.9500 86845.2100    0  10858    0 2000028
 11954.389005  83828 158764  38283    0  0  0 103875.61000 199191.0300 105545.63000    0 177702.3600 186071.3700 180884.4300 186481.6500 190017.3900 94875.73100 205047.9400 86405.0480    0  10856    0 2000028
 11956.054436  83806 158812  38208    0  0  0 104019.20000 199165.6100 106497.43000    0 176169.7300 185728.5300 180967.7200 186796.2400 188237.8000 95099.69300 204620.6900 86145.2640    0  10855    0 2000028
 11957.857240  83792 158922  38245    0  0  0 103005.44000 198300.3500 105225.42000    0 175235.3000 185116.1000 180401.7500 185899.9200 188508.0200 98811.82200 203547.3000 85121.1710    0  10850    0 2000028
 11959.729068  83777 158955  38245    0  0  0 103583.21000 197239.5300 104450.99000    0 175332.6900 185969.8100 179710.8800 185717.4900 188933.7400 88731.69300 204205.3400 87026.5550    0  10847    0 2000029
 11961.455161  83751 159031  38261    0  0  0 103584.00000 199065.0700 105432.38000    0 176305.5300 186131.0200 180385.2300 185339.0900 187707.6800 96409.14600 203880.3000 86737.5680    0  10843    0 2000028
 11963.219131  83846 159293  38291    0  0  0 101994.53000 197304.9900 105482.99000    0 174015.9600 184566.5700 179273.6600 184801.5800 186880.4900 88584.01000 202954.5200 84929.8080    0  10860    0 2000028
 11965.130045  84134 159970  38411    0  0  0 102868.59000 199538.7600 105541.25000    0 177154.7200 186114.2800 182052.0700 187418.9600 186546.9000 49299.22900 206214.8100 85600.2650    0  10890    0 2000028
 11967.080532  84235 160224  38468    0  0  0 106014.67000 199523.3500 105794.70000    0 176523.6800 186177.2000 181405.7200 186572.4500 190263.4100 84720.78000 203602.0500 87365.4930    0  10903    0 2000028
 11968.966199  84196 160259  38417    0  0  0 103464.97000 197709.0600 104728.07000    0 176005.1800 185969.8000 180438.6900 186531.8300 188881.2800 90158.91200 203672.1600 86918.3880    0  10900    0 2000028
 11970.821287  84175 160344  38373    0  0  0 101344.44000 197725.3100 105274.87000    0 174265.7800 184475.2900 181324.2400 185093.8600 185299.5900 83333.26900 202347.8700 84221.3560    0  10896    0 2000028
 11972.773656  84681 161397  38605    0  0  0 102798.81000 198676.8000 105489.47000    0 175776.6800 186012.3100 180864.7400 185717.2100 186404.2500 75843.83400 204362.1300 85733.5340    0  10954    0 2000028
 11974.764115  85364 162861  38816    0  0  0 106128.31000 200469.9800 107201.29000    0 177429.2500 187835.7400 182316.5100 187195.4800 191226.8400 35889.11500 206050.0200 88722.3690    0  11033    0 2000028
 11976.798945  86028 164280  38950    0  0  0 104176.87000 200633.2300 106904.27000    0 178577.0800 189752.0800 184369.9300 189721.9700 190820.8700 63324.81200 208298.7000 87464.7470    0  11111    0 2000029
 11978.795446  86213 164774  38878    0  0  0 104281.30000 200832.1500 106097.87000    0 177164.6600 187197.2800 181067.4800 187132.1300 188209.3200 13764.76700 205785.1400 85397.5600    0  11130    0 2000028
 11980.822295  85041 162674  38986    0  0  0 102340.33000 197454.2200 104816.91000    0 174614.8500 183964.6300 179305.6300 183839.2500 185318.4600 38806.71500 202898.6700 85301.8510    0  10991    0 2000028
 11982.823280  85909 164475  39013    0  0  0 104522.72000 198470.3100 105124.25000    0 175881.5100 185966.2700 180763.2000 185169.2200 188810.3800 23170.05200 204776.0200 87413.7500    0  11092    0 2000028
 11984.903086  85717 164291  39157    0  0  0 101488.80000 196801.4200 103919.07000    0 173487.4800 183338.1600 179241.6400 184333.5900 185371.6800 52594.62700 201180.2100 84623.4170    0  11067    0 2000028
 11987.058669  86170 165353  39232    0  0  0 101942.84000 194723.3100 104561.43000    0 172962.2200 183286.1200 177885.1500 183216.9100 185614.5300 27406.51900 200893.1100 85004.8590    0  11116    0 2000028
 11989.186886  86490 166176  39354    0  0  0 102259.56000 196265.1900 104434.64000    0 172909.7400 182505.8600 178010.6100 182616.5900 185685.3200 78739.79500 200631.7400 84899.4690    0  11151    0 2000028
 11991.256416  86657 166646  39350    0  0  0 101383.18000 194069.2200 103484.16000    0 171056.4800 180855.4600 176128.4000 181235.9400 183307.3000 21741.44700 199883.7700 84015.1950    0  11175    0 2000028
 11993.376754  86783 167063  39379    0  0  0 100895.88000 192891.0300 102939.52000    0 172522.0200 180313.2900 176068.8700 181524.4200 183717.3100 37687.62400 198929.6600 84004.7170    0  11191    0 2000029
 11995.543258  86780 167210  39391    0  0  0 102068.31000 193357.9600 103379.89000    0 171205.0300 180619.3800 176494.1500 181833.8300 184459.3400 53289.09800 198743.8100 85243.1270    0  11189    0 2000028
 11997.746578  86735 167237  39357    0  0  0 98526.27700 193126.9600 102046.36000    0 171244.9800 180696.2300 175323.4600 180578.0100 181910.2600 53402.90900 198180.6600 83566.0110    0  11179    0 2000028
 11999.983624  86709 167316  39324    0  0  0 99533.89400 192329.7700 101915.55000    0 168935.2000 178839.9000 173920.6400 178926.5300 179161.5800 85746.98900 197170.9200 81354.0680    0  11180    0 2000028
 12002.182330  86674 167347  39308    0  0  0 100921.17000 191139.0100 101678.36000    0 169695.9500 179326.5500 173850.4800 178994.3800 181352.3800 88789.98600 197315.3100 83469.6290    0  11174    0 2000028
 12004.364604  86654 167411  39313    0  0  0 101163.42000 191820.3000 102808.62000    0 169215.6900 179031.9400 174645.1900 179601.6000 182085.8400 84031.49200 198487.3000 83542.9320    0  11171    0 2000028
 12006.610427  86620 167378  39270    0  0  0 99799.68900 192844.3700 101975.32000    0 169406.3200 179875.2600 173859.1300 179307.3800 181477.2400 56970.31000 196955.0300 82582.4110    0  11169    0 2000029
 12008.860241  86585 167392  39250    0  0  0 100101.38000 192904.8700 101765.24000    0 170884.7700 180049.7800 174591.0400 180413.2900 182714.3800 31739.01900 197776.4100 83399.0750    0  11161    0 2000028
 12011.103061  86569 167433  39225    0  0  0 101149.11000 193613.8700 101920.19000    0 170629.1400 181204.7600 175266.7300 180929.4600 183873.8600 81835.41700 199820.5000 85127.0790    0  11161    0 2000028
 12013.381280  86542 167401  39205    0  0  0 101533.78000 194311.9600 103309.89000    0 171829.8700 181150.3900 175225.9200 182660.8100 184667.6900 78182.78200 200117.8000 84982.4540    0  11155    0 2000029
 12015.729499  86513 167431  39161    0  0  0 100435.53000 193834.7300 103320.49000    0 171572.3300 181694.2900 177176.8800 181533.2800 183342.0800 79423.40700 199087.7100 83326.2510    0  11146    0 2000028
 12018.058218  86473 167360  39123    0  0  0 100707.56000 194831.7200 104201.61000    0 173101.1900 181598.7000 176853.5100 182229.2500 184257.7700 88209.24400 201839.7000 84095.1440    0  11148    0 2000028
 12020.413009  86435 167362  39081    0  0  0 104076.37000 196059.2000 103786.86000    0 173451.4300 183149.2200 178067.8400 183182.9000 186092.5100 57073.92900 201142.7300 85894.5080    0  11138    0 2000028
 12022.748288  86328 167176  39062    0  0  0 103131.02000 197886.9800 104736.01000    0 174844.9200 185247.7300 180189.0300 185024.2600 187516.8400 90520.03300 203223.2100 86162.6360    0  11125    0 2000028
 12025.136413  86285 167149  39093    0  0  0 102956.10000 198250.4600 104936.00000    0 175495.2000 184267.1100 180196.0800 185546.0900 188294.2100 73478.34400 203566.2000 86414.7550    0  11120    0 2000028
 12027.564854  86365 167351  39121    0  0  0 103954.53000 198977.5400 105628.23000    0 175844.3200 186488.9800 180762.4900 186482.2800 187062.5900 77470.03800 204651.4500 86826.0010    0  11131    0 2000028
 12030.017913  86256 167198  39103    0  0  0 104496.02000 199931.6800 106713.26000    0 177229.1000 187127.6300 182451.7000 187640.1200 190057.1000 91427.78000 206237.0200 86342.4240    0  11114    0 2000027
 12032.402665  86294 167326  39076    0  0  0 105061.52000 200743.1900 106699.43000    0 177300.5800 185533.6900 181863.1100 187060.5100 188912.1700 48507.71900 205922.0100 86586.3000    0  11121    0 2000028
 12034.827779  86259 167295  39000    0  0  0 106723.68000 201703.8700 106805.74000    0 177728.4400 187657.2500 183359.3000 188214.8500 191094.2400 43936.98800 206630.2900 88227.6040    0  11117    0 2000028
 12037.354796  86120 167084  39025    0  0  0 103661.34000 203029.7400 106681.84000    0 178485.8200 188611.8100 184635.6600 188487.6500 189464.7200 78785.84300 208229.6400 86883.0360    0  11101    0 2000029
 12039.848186  86076 167078  39066    0  0  0 105016.93000 202547.5400 107615.44000    0 178847.6100 188978.6700 184401.0700 188697.9700 189863.6500 97638.55200 207732.2200 87144.5300    0  11097    0 2000029
 12042.303171  86112 167212  39050    0  0  0 106175.97000 204017.5300 107982.23000    0 179339.5200 189333.3600 184332.0600 189625.9100 190861.6600 97167.75900 208828.1400 88124.5880    0  11097    0 2000028
 12044.811270  86175 167413  39045    0  0  0 107815.02000 204280.8100 108643.92000    0 181767.9400 191273.2700 185628.7500 191651.2900 194990.5400 97156.67500 210525.7200 89805.7470    0  11102    0 2000028
 12047.320428  85971 167130  39041    0  0  0 107066.95000 204601.6800 108239.37000    0 180843.5200 190308.3400 185416.2200 190438.5200 192496.5800 54152.23400 209223.4100 89054.1020    0  11073    0 2000027
 12049.914392  86088 167425  38995    0  0  0 106541.18000 203353.3800 108898.05000    0 181276.3500 191638.1000 185632.8300 191758.5100 192315.1100 86302.63800 208810.6500 88077.1730    0  11088    0 2000029
 12052.424125  86085 167531  39048    0  0  0 107784.72000 204125.3300 108383.12000    0 180713.5200 190177.0900 185669.7800 191932.8900 194082.5700 21739.94200 210191.2300 89925.2440    0  11090    0 2000029
 12055.010829  86042 167556  39047    0  0  0 108441.72000 204895.1000 109266.10000    0 182209.0800 190896.7400 187432.4100 192310.6100 196430.3200 45817.87500 210885.1100 90774.4320    0  11083    0 2000029
 12057.677766  86019 167628  38978    0  0  0 106296.90000 205435.6200 108843.27000    0 181554.5300 191774.8200 186880.2100 193119.9600 193791.1900 82719.10500 210694.5800 88979.8920    0  11079    0 2000029
 12060.250928  85992 167660  38984    0  0  0 106764.28000 205711.1500 108697.89000    0 181868.4300 192421.7900 187185.0500 191660.9500 193489.6900 61507.42700 212187.3000 87854.8100    0  11077    0 2000029
 12062.860042  85967 167719  38950    0  0  0 106765.90000 205224.9000 109135.00000    0 180565.5400 191562.1500 186405.6800 191480.2900 193481.1200 93808.56800 211773.2900 89967.4890    0  11073    0 2000028
 12065.532086  85913 167740  38904    0  0  0 109605.10000 206273.8900 110022.72000    0 182490.1100 192369.6700 187419.9400 193649.0400 196191.8400 90459.22300 212073.2100 91209.1760    0  11067    0 2000028
 12068.194235  85881 167770  38918    0  0  0 107608.99000 205845.0700 109472.83000    0 181024.6500 191410.1400 186005.8100 191556.8600 194991.4200 54540.30100 210890.9500 90377.6800    0  11064    0 2000028
 12070.892461  85856 167842  38905    0  0  0 106943.58000 207037.8200 110068.17000    0 182751.5900 192493.3200 188495.7000 192660.5700 195012.9600 93759.12400 212333.0200 89271.5810    0  11059    0 2000028
 12073.520523  85820 167858  38814    0  0  0 107769.65000 204878.2300 109615.44000    0 181285.5100 192608.7700 188415.7200 192383.2300 194612.1300 40257.48900 211099.4600 89642.0960    0  11054    0 2000029
 12076.241796  85793 167947  38853    0  0  0 108349.36000 204524.7400 108121.00000    0 182007.5400 191189.3200 186132.3200 191715.6100 196587.3900 16436.34800 210331.1400 90767.8000    0  11047    0 2000028
 12078.973841  85763 167981  38843    0  0  0 107822.62000 206371.5100 109646.90000    0 182778.6000 192623.8000 187959.1300 193221.5300 196624.1900 28643.04400 211759.6400 89126.2000    0  11043    0 2000028
 12081.683311  85738 168043  38792    0  0  0 107896.99000 206397.8400 110100.83000    0 182299.7400 193324.3700 187292.7200 193029.8600 195023.4100 23639.92700 211748.5300 89784.8410    0  11040    0 2000028
 12084.470299  85702 168107  38807    0  0  0 106556.61000 205851.0000 108573.52000    0 182037.9000 192231.2600 187381.0900 191955.2300 193800.9900 14139.79000 210319.8700 89887.9830    0  11036    0 2000028
 12087.341274  85667 168137  38796    0  0  0 107593.18000 205630.7300 109460.99000    0 182866.2100 192956.6100 187707.9900 193251.8800 194902.5600 13836.09400 211577.9400 90037.4730    0  11031    0 2000028
 12090.224768  85626 168196  38733    0  0  0 109365.39000 206533.2100 109786.91000    0 182398.3800 192320.4100 187647.1200 193266.2000 195867.8200 15377.85100 210911.9200 89931.6200    0  11025    0 2000028
 12093.068276  85566 168212  38754    0  0  0 107837.65000 205604.5800 109633.13000    0 181961.2900 191998.1700 187780.5800 192351.4700 194679.0300 93559.98100 211524.3000 90298.2070    0  11014    0 2000028
 12095.925879  85559 168329  38779    0  0  0 107761.16000 205903.2000 109961.47000    0 182809.3500 192657.4300 186741.6500 192010.7700 195511.6500 95029.47200 211592.4000 89846.3730    0  11008    0 2000028
 12098.851762  85525 168433  38672    0  0  0 107823.09000 205094.7500 109046.44000    0 182141.0800 191965.3600 187593.9800 192476.6000 194507.5200 94215.75100 212007.8400 89450.7320    0  11004    0 2000028
 12101.731264  85506 168522  38737    0  0  0 108642.26000 205519.0700 109325.57000    0 183397.7100 192535.9300 187402.9600 192762.0900 195278.2900 95695.43500 210782.9200 90534.0200    0  11002    0 2000029
 12104.626507  85476 168576  38748    0  0  0 107753.33000 205529.0700 109242.16000    0 182785.7000 190861.0200 187826.6300 193359.8100 196480.0600 101829.17000 212030.2100 90885.5900    0  10995    0 2000028
 12107.653984  85438 168664  38711    0  0  0 105290.83000 205179.6900 108859.21000    0 181465.9100 191907.7300 187744.2300 193004.8200 192344.2600 96576.75300 211368.2100 87856.7410    0  10990    0 2000028
 12110.590412  85400 168717  38664    0  0  0 105660.60000 204389.4500 109419.49000    0 181067.3200 189567.5300 186292.6200 190126.5000 192111.4200 90257.46200 209797.6300 87541.7090    0  10988    0 2000028
 12113.593763  85289 168650  38747    0  0  0 108066.10000 204967.6000 108798.87000    0 182227.9000 191251.3200 186755.4900 191592.1800 195970.1100 52667.41200 211062.0700 90752.6350    0  10975    0 2000029
 12116.571462  85348 168907  38733    0  0  0 106334.67000 203973.1400 108081.59000    0 180361.7200 191246.6500 186278.1400 190449.2000 193236.3200 94491.04100 209967.4400 89393.1360    0  10981    0 2000029
 12119.598605  85322 168966  38696    0  0  0 104874.79000 203476.0700 108085.10000    0 179346.6300 189559.1200 185754.8200 190039.0300 191806.9600 97795.64800 208391.0700 86569.5190    0  10976    0 2000028
 12122.689662  85271 169001  38721    0  0  0 107318.61000 205251.9000 108979.49000    0 181559.0800 190772.1500 186364.5600 192069.0300 193205.5900 71280.43300 209838.3300 88471.7960    0  10971    0 2000028
 12125.806323  85230 169071  38669    0  0  0 108260.33000 204048.5200 108325.44000    0 180381.7100 189512.2100 185458.0500 190905.3900 193216.4800 49401.72400 208719.4200 89730.7760    0  10960    0 2000028
 12128.961436  85162 169080  38543    0  0  0 105877.34000 204164.3800 108045.36000    0 180760.9800 190807.9400 185646.1300 189821.1600 191659.7800 21648.43500 209351.6900 88332.0000    0  10953    0 2000028
 12132.057337  85058 168960  38169    0  0  0 105850.84000 204057.9700 108183.13000    0 179161.2200 189614.1100 185390.0500 191594.7600 191248.0200 48088.72900 208194.2200 87064.4200    0  10940    0 2000028
 12135.164457  83147 165263  38517    0  0  0 103610.87000 198295.1500 105517.79000    0 176113.5700 185854.7700 180603.1500 186558.7900 187577.6900 45534.46400 204769.6100 86023.8860    0  10712    0 2000028
 12138.406299  85138 169408  38602    0  0  0 107806.73000 203299.8700 108340.22000    0 179641.0200 189862.5700 185090.5100 190003.8200 194277.7000 38749.77600 209672.4800 89332.6540    0  10948    0 2000028
 12141.598550  85060 169359  38480    0  0  0 106339.22000 204332.7300 108316.99000    0 180763.9900 189854.7800 185707.9100 189982.5600 193268.9300 29909.20800 208983.2400 88461.6140    0  10935    0 2000029
 12144.765211  84848 169063  38514    0  0  0 106071.09000 203917.9200 109245.29000    0 180192.8600 190212.8600 185322.9100 190641.7100 193121.3300 45160.37900 209683.6400 88484.5930    0  10913    0 2000029
 12147.973703  84925 169344  38524    0  0  0 107659.20000 206116.7300 109370.10000    0 181420.3500 191408.2500 186812.9100 192405.7300 194720.9100 93955.62700 211206.2200 89920.0480    0  10916    0 2000029
 12151.228915  84915 169434  38464    0  0  0 107531.33000 206199.4800 109001.27000    0 182125.1000 191667.5400 187518.6900 192219.0200 194453.7500 61858.70500 210499.6400 89413.3820    0  10919    0 2000027
 12154.527704  84885 169518  38474    0  0  0 107298.30000 204393.2800 109189.71000    0 181757.6000 191632.7000 185325.4900 191202.1000 193449.1200 78503.23400 211146.2300 88837.6870    0  10916    0 2000029
 12157.804176  84861 169581  38446    0  0  0 107261.11000 206074.9700 109721.25000    0 181389.9700 191629.6300 187639.5600 191823.9000 195163.9100 69748.57300 211548.7900 90038.1090    0  10911    0 2000028
 12161.111415  84807 169613  38381    0  0  0 106036.89000 205464.7000 109083.05000    0 182585.7600 191438.9400 186940.3000 192046.2000 194432.2100 90171.30900 211131.4900 89343.5290    0  10904    0 2000029
 12164.523563  84768 169657  38342    0  0  0 107339.31000 206819.6400 109043.90000    0 182154.4600 192959.3600 186590.5700 192776.3100 194692.0400 93958.29400 209812.3000 88600.9550    0  10896    0 2000028
 12167.887692  84691 169625  38366    0  0  0 108048.55000 207062.9000 110311.75000    0 183007.8200 192859.7100 189116.2400 192944.3200 195814.1800 96057.75700 212355.7300 90182.0760    0  10887    0 2000028
 12171.266608  84671 169732  38311    0  0  0 108954.15000 208059.0500 110575.88000    0 183891.0800 193160.5200 189041.7600 194052.2700 197485.4000 92942.91700 214218.1000 91169.5280    0  10883    0 2000028
 12174.673242  84623 169758  38304    0  0  0 107599.35000 207551.8700 109494.18000    0 183801.0400 193420.3500 188495.0000 193411.8400 195867.3100 66149.25600 212938.3600 89496.5280    0  10874    0 2000029
 12178.106024  84518 169653  38260    0  0  0 107819.86000 207961.9800 110337.91000    0 182716.3500 193913.0000 187936.0800 195084.5300 195295.3200 58390.35600 211902.4200 89461.6730    0  10860    0 2000028
 12181.537539  84566 169902  38330    0  0  0 110013.41000 207875.9700 110044.33000    0 182880.4600 193030.8800 189911.5500 193582.7000 196419.7500 95483.60400 213274.8600 90902.9800    0  10864    0 2000028
 12185.045360  84523 169990  38330    0  0  0 110561.03000 207436.3400 110724.73000    0 184329.6800 195065.4400 189243.1500 194388.0500 198731.3600 89872.41900 214163.2700 92015.3600    0  10861    0 2000028
 12188.511566  84488 170052  38285    0  0  0 107291.84000 207603.4100 110720.50000    0 184032.5900 194750.7900 189352.7100 195334.4800 195742.3500 61563.22100 213603.1800 89455.7800    0  10856    0 2000027
 12191.944173  84461 170137  38380    0  0  0 108794.25000 207834.8900 111015.43000    0 184887.8600 195433.5100 189439.2500 195520.3300 196923.2200 88764.98300 213365.8000 89008.0050    0  10856    0 2000028
 12195.553596  84454 170238  38293    0  0  0 108512.51000 207677.3600 110209.33000    0 184507.5600 193538.4600 189339.0700 194509.2600 196943.6600 21249.43500 213176.9700 90687.0610    0  10851    0 2000028
 12199.067985  84149 169774  38333    0  0  0 110072.31000 208387.8300 110891.28000    0 184925.9600 194453.5600 189036.7400 194373.1500 199375.9100 20976.93500 213321.9600 91515.4280    0  10812    0 2000028
 12202.556871  84373 170390  38334    0  0  0 109421.91000 208811.8800 111122.91000    0 184648.1200 194239.1900 190073.4000 195640.7900 196960.5200 36008.75900 215036.8500 90139.5610    0  10839    0 2000028
 12206.151582  84333 170432  38324    0  0  0 108292.26000 210428.5800 111804.90000    0 184454.7700 195290.3300 191376.5300 196954.8200 197657.6700 74505.70400 216476.9500 90456.0180    0  10832    0 2000028
 12209.664050  84277 170480  38305    0  0  0 109613.00000 209341.3100 110284.52000    0 183817.6100 193681.1700 190386.6600 193574.0700 197532.7700 78134.93500 213471.5500 91213.1360    0  10827    0 2000028
 12213.258135  84238 170536  38262    0  0  0 110673.10000 209675.2800 111197.86000    0 185031.5800 195422.4600 190425.5000 195102.3200 199841.3000 101521.29000 215626.8500 92608.8290    0  10820    0 2000028
 12216.896610  84203 170605  38254    0  0  0 108657.06000 208470.5400 111753.00000    0 184948.5700 194273.1100 190611.0700 195598.6000 198313.0000 96608.95300 214757.9800 90011.4310    0  10814    0 2000027
 12220.501515  84116 170561  38157    0  0  0 109192.99000 210126.1400 111547.26000    0 185740.1000 195133.1700 190224.0800 195828.1300 197047.5900 94099.93400 215774.3200 90167.0390    0  10805    0 2000028
 12224.165514  84078 170624  38122    0  0  0 108722.58000 209643.9000 111753.86000    0 184569.1700 196691.9200 190491.1800 196302.0600 196268.7000 102457.65000 215320.2400 91072.8120    0  10800    0 2000028
 12227.743842  84032 170696  38113    0  0  0 110797.40000 210079.3400 110759.72000    0 184959.6400 195925.7900 190916.7100 196273.1800 198894.5000 96586.01300 215071.0800 92314.9900    0  10794    0 2000028
 12231.474135  83957 170697  38089    0  0  0 109488.45000 210497.1600 111815.45000    0 185485.1400 196425.2500 191063.0700 195358.7700 199427.8800 100742.55000 216082.6700 91316.0310    0  10782    0 2000028
 12235.162733  83786 170521  37973    0  0  0 108078.82000 208971.2600 111562.01000    0 183930.1500 194401.7800 189627.8000 195186.3000 196374.6800 102661.52000 214746.7100 89486.4980    0  10761    0 2000028
 12238.882940  83819 170700  37955    0  0  0 110111.86000 210390.3800 111603.78000    0 185869.7500 195842.4300 191824.5600 196089.4700 198890.5500 103055.95000 215435.5000 92315.5170    0  10743    0 2000028
 12242.742508  83603 170426  37945    0  0  0 111417.51000 209539.2900 110971.53000    0 185226.0000 195778.6800 190369.3000 196597.5400 199939.1500 88991.12700 215194.4900 91748.4510    0  10691    0 2000028
 12246.405342  83562 170521  37770    0  0  0 108469.51000 209344.6100 110423.10000    0 184130.3900 194584.0900 190557.2500 194782.8000 196068.0100 47442.69400 214286.3900 89954.1390    0  10685    0 2000028
 12250.302397  83243 169979  37052    0  0  0 107648.03000 208876.5800 111223.92000    0 183747.1100 193805.1000 188730.0300 193528.8300 196840.7800 87687.88600 213966.2900 90341.0170    0  10647    0 2000029
 12254.043385  81192 165801  36451    0  0  0 105872.81000 204077.4600 108684.24000    0 180293.3000 189818.7600 185188.8900 190513.3400 192527.1700 39385.20600 208917.4300 88513.1660    0  10407    0 2000028
 12257.896292  82396 168490  37884    0  0  0 108121.53000 206039.4600 109916.67000    0 182465.7900 191515.2200 187425.0100 193184.8800 195328.8200 16206.95800 211550.8600 90497.0160    0  10547    0 2000028
 12261.756565  83921 171927  38083    0  0  0 109934.26000 210050.1700 111836.87000    0 186203.7500 196237.3600 191593.7700 195877.8200 199501.9200 47214.11200 216389.8900 91676.4680    0  10723    0 2000028
 12265.632407  83867 172009  38084    0  0  0 110534.40000 210241.7100 111759.38000    0 185655.6300 195640.2400 190867.5000 196233.6400 199660.4000 52506.39100 216325.4500 92370.1470    0  10717    0 2000028
 12269.541874  83825 172065  38109    0  0  0 109907.21000 211296.8000 111732.67000    0 184974.2900 196317.7900 192014.3100 196696.2900 199854.3900 74536.65900 214752.2600 91452.2260    0  10743    0 2000028
 12273.517832  83751 172086  38172    0  0  0 110510.34000 210919.8000 112335.74000    0 185750.7700 195950.1800 191377.2900 197225.3100 199035.1100 100157.93000 216490.7500 91770.7680    0  10743    0 2000029
 12277.440601  83691 172113  38077    0  0  0 110196.69000 208890.4200 111551.59000    0 185071.4600 196041.0400 189953.2600 195267.4800 198063.4100 43255.25400 214926.9300 91649.1810    0  10738    0 2000028
 12281.489081  83613 172129  37965    0  0  0 110988.77000 210213.1600 111237.97000    0 185622.7600 196199.7400 192386.8300 196085.3000 199773.4400 81897.76400 214784.6200 92521.6580    0  10720    0 2000029
 12285.494253  83063 171116  37996    0  0  0 108531.54000 207546.5100 111080.74000    0 183530.0200 194637.2300 189344.5700 195266.0100 195673.2100 57686.19200 214420.1600 89260.5940    0  10658    0 2000029
 12289.510296  83543 172300  38044    0  0  0 108028.57000 209631.3500 111774.93000    0 184326.1600 195605.7400 190958.0700 195549.5700 196225.3700 27542.46500 215833.0400 90525.2110    0  10694    0 2000028
 12293.514190  83506 172435  38046    0  0  0 111549.01000 210016.3500 111537.25000    0 185596.7600 195935.1900 191722.7000 196753.4600 200293.5800 95884.35900 215551.8700 92416.0290    0  10708    0 2000028
 12297.655753  83455 172471  38041    0  0  0 109482.71000 211236.8700 112131.04000    0 186711.9800 196553.3700 192104.0200 197770.3700 199883.7900 103290.70000 215783.3400 91817.0730    0  10701    0 2000028
 12301.610652  83356 172421  37950    0  0  0 108459.83000 211145.3100 112417.23000    0 186527.4900 197016.3800 191366.9000 196593.7800 198172.7800 102803.59000 216989.7000 89582.6340    0  10685    0 2000029
 12305.853379  83287 172457  37929    0  0  0 109835.67000 210304.2100 111751.91000    0 186296.9400 196343.2400 191420.1700 196407.1500 198378.4000 97784.43900 215226.2700 90959.8800    0  10677    0 2000029
 12309.848273  83266 172560  37921    0  0  0 110431.68000 210832.5100 112300.65000    0 186495.3800 196630.0400 192131.2100 196302.6100 199788.3200 99816.96300 215814.0000 93377.0150    0  10674    0 2000028
 12313.963022  83199 172603  37916    0  0  0 110421.85000 211358.5200 112910.47000    0 187401.4600 197513.4000 193536.0100 197186.5200 200756.3400 103930.73000 216750.5500 91782.7750    0  10667    0 2000028
 12318.055776  83156 172670  37883    0  0  0 109538.72000 211129.8800 112696.72000    0 186380.6000 196967.2400 192576.7500 197579.0900 199355.2100 102121.77000 217082.7900 90274.8410    0  10664    0 2000028
 12322.207500  83054 172639  37860    0  0  0 109486.90000 211193.5100 112289.54000    0 186924.3800 198162.9000 191977.3000 197280.5700 198794.5800 97599.75400 217398.3300 91772.3180    0  10649    0 2000029
 12326.431548  83006 172720  37787    0  0  0 111803.86000 211131.1000 111729.97000    0 187166.7600 197128.7100 192629.4600 197785.0200 201275.0500 102185.19000 217416.8700 93247.3000    0  10642    0 2000028
 12330.529394  82964 172813  37703    0  0  0 109792.88000 211282.6800 112687.15000    0 186272.7200 197386.6200 192419.5900 197047.0600 198966.0600 103141.84000 216819.2400 92343.7800    0  10637    0 2000028
 12334.795674  82923 172869  37760    0  0  0 110240.70000 210526.5800 112613.44000    0 187275.9900 196788.2300 193154.2200 197632.8000 199529.0900 103255.05000 217857.1100 92053.3000    0  10631    0 2000028
 12338.973762  82873 172922  37761    0  0  0 110479.43000 211990.5800 112265.86000    0 187147.7800 197290.6000 192969.6000 198046.5000 201186.6500 85051.03400 217977.6500 91994.9050    0  10621    0 2000028
 12343.234353  82818 173015  37782    0  0  0 110795.71000 212475.1900 112143.51000    0 187652.5800 197300.8500 193149.2600 197857.2700 200830.3100 89038.03300 217589.3300 92677.7480    0  10614    0 2000028
 12347.542751  82777 173103  37763    0  0  0 110031.44000 211742.3700 112883.20000    0 187763.6400 198102.9300 192129.5300 197752.1000 199878.9300 91915.38700 217691.6300 92217.6960    0  10606    0 2000028
 12351.701351  82768 173236  37885    0  0  0 109847.86000 211432.1900 113196.55000    0 187830.7300 197706.7800 193314.3000 198911.2500 200610.6900 92378.26200 218352.5100 92573.6770    0  10597    0 2000028
 12356.068942  82728 173341  37805    0  0  0 108722.22000 211131.3000 112609.03000    0 186030.6900 196554.5800 192716.9700 197893.3200 197420.8100 16282.65600 216685.3000 90298.7890    0  10595    0 2000029
 12360.281612  82677 173385  37861    0  0  0 111240.36000 213274.5300 113492.27000    0 188407.2100 198221.5300 193709.7400 199687.2400 200765.4100 40538.55200 219175.2300 92098.3640    0  10590    0 2000028
 12364.558791  82608 173437  37844    0  0  0 110987.46000 212068.8900 113377.88000    0 187719.5000 198719.2300 194102.0700 197808.0000 199216.7900 81634.68100 217904.7300 92566.8440    0  10583    0 2000028
 12368.955594  82557 173489  37834    0  0  0 110275.51000 212320.3800 113393.65000    0 187066.1800 197936.3100 192667.0900 197471.4800 200971.4900 79382.84500 217639.9000 92558.0130    0  10575    0 2000028
 12373.195511  82507 173548  37818    0  0  0 109452.15000 210900.1600 113059.99000    0 187068.0200 197063.8600 192913.0800 197172.6800 198675.1200 80438.43600 218479.5100 91407.5510    0  10569    0 2000028
 12377.630240  82457 173631  37809    0  0  0 110736.34000 212848.7100 112987.54000    0 187586.6800 198357.9400 193815.8700 198894.3600 200226.2100 101220.12000 218573.7200 91117.7640    0  10560    0 2000027
 12381.983039  82216 173298  37796    0  0  0 110829.25000 210377.6100 113219.89000    0 187446.5400 198134.7900 192800.9300 197677.3100 201920.4500 97033.83000 218154.4400 92871.3790    0  10528    0 2000029
 12386.345625  82305 173705  37732    0  0  0 111425.50000 211764.7000 113296.29000    0 188058.3200 197640.3700 194084.5500 199000.3100 201923.3600 96065.50700 218666.0500 93305.9270    0  10534    0 2000029
 12390.875184  82240 173737  37706    0  0  0 109325.68000 212359.4700 113132.00000    0 187402.0000 198833.2000 194017.4200 198467.1400 199121.7500 102848.39000 218685.3500 90920.6900    0  10525    0 2000028
 12395.326110  82161 173752  37660    0  0  0 110739.01000 212311.3800 112686.61000    0 188492.9000 198379.0700 193733.6400 197376.3500 199370.1900 99044.69400 218979.5800 91214.5860    0  10512    0 2000029
 12399.763532  82010 173605  37583    0  0  0 111030.00000 211575.7900 113550.77000    0 186543.8000 198094.2600 193804.6500 197712.2100 199909.1700 84987.81800 217949.8900 92113.5820    0  10495    0 2000028
 12404.299689  81996 173745  37532    0  0  0 112115.99000 211034.9900 112987.59000    0 187153.7500 197759.2300 194059.2100 198448.4500 200148.9200 104021.05000 217966.2200 92751.8830    0  10494    0 2000028
 12408.835855  81809 173566  37554    0  0  0 109988.82000 212253.6200 114075.39000    0 187771.7700 198132.5200 193371.7200 198339.3800 199900.8800 100369.75000 217304.4900 91491.3950    0  10475    0 2000028
 12413.293153  81925 173999  37500    0  0  0 110380.27000 213433.4300 113491.06000    0 188600.6700 198331.1600 193969.7000 199283.8100 201172.8400 52254.64700 219493.7300 91800.7750    0  10488    0 2000028
 12417.888049  81891 174114  37568    0  0  0 112185.17000 214111.5900 113492.78000    0 188517.1200 199440.0400 194008.4600 199787.3800 202049.3300 36160.75200 219098.4400 93745.9990    0  10482    0 2000028
 12422.504879  81847 174201  37502    0  0  0 112646.70000 212421.6500 113005.94000    0 187223.0800 199072.7700 193295.0000 198150.5400 200886.1600 22662.72300 218439.1600 93221.4520    0  10476    0 2000029