# XDI/1.0 GSE/1.0
# Scan-start_time: 2024-10-06T10:33:36
# Column.1: energy eV
# Column.2: I0_eh2
# Column.3: I1_eh2
# Column.4: IX_eh2
# Column.5: IR_eh2
# Column.6: c8
# Column.7: c9
# Column.8: fluo01
# Column.9: fluo02
# Column.10: fluo03
# Column.11: fluo04
# Column.12: fluo05
# Column.13: fluo06
# Column.14: fluo07
# Column.15: fluo08
# Column.16: fluo09
# Column.17: fluo10
# Column.18: fluo11
# Column.19: fluo12
# Column.20: fluo13
# Column.21: I0_eh1
# Column.22: I1_eh1
# Column.23: IX_eh1
# Mono.name: Si 111
# Mono.d_spacing: 3.134692
# Mono.notes: LNT cooled
# Beamline.name: BM08-LISA
# Facility.name: ESRF
# Facility.xray_source: Bending magnet
# ---------
# BraggEnergy I0_eh2 I1_eh2 IX_eh2 IR_eh2 c8 c9    fluo01   fluo02    fluo03 fluo04   fluo05   fluo06   fluo07   fluo08   fluo09    fluo10   fluo11   fluo12 fluo13 I0_eh1 I1_eh1 IX_eh1
 11725.607953  87426 172532  38791    0  0  0  852.66173  1503.0179  927.95031    0  1313.7452  1317.9403  1660.3395  1268.0949  1475.0463  1170.16290  1650.4519  1071.0299    0  11370    0 2000029
 11735.336844  87368 172920  38823    0  0  0  852.44026  1574.6961  978.23314    0  1320.1839  1270.6192  1634.6603  1290.8880  1494.1540  1105.58600  1669.9912  1035.6550    0  11362    0 2000028
 11745.179636  87299 173256  38908    0  0  0  811.76568  1504.3614  874.06002    0  1257.3438  1273.1372  1592.4054  1360.7930  1466.3545  1196.35730  1640.6610  1110.7137    0  11312    0 2000028
 11755.024167  87198 173548  38932    0  0  0  873.12422  1593.5706  852.97906    0  1259.1619  1274.4065  1608.3126  1294.9758  1420.9315  1416.89610  1648.7977  1141.2624    0  11294    0 2000028
 11764.908034  87113 173870  38890    0  0  0  918.16124  1632.6591  838.84133    0  1340.8152  1395.0597  1634.4262  1391.1448  1511.0825  3732.81770  1662.2237  1050.6704    0  11276    0 2000028
 11774.920356  87019 174151  38829    0  0  0  941.16408  1602.5703  932.12982    0  1336.3781  1402.6658  1673.4060  1414.3255  1631.6476  3734.28530  1711.0764  1119.6591    0  11261    0 2000028
 11784.824619  86910 174411  38859    0  0  0  913.52372  1675.9112  972.08997    0  1358.9513  1434.0612  1670.6137  1414.8884  1525.2019  2662.86140  1784.2596  1052.5236    0  11244    0 2000029
 11794.739747  86810 174715  38826    0  0  0  863.19677  1699.5771  950.46405    0  1397.6847  1447.5257  1685.5313  1454.3857  1560.2376  1698.56080  1776.6156  1123.6889    0  11229    0 2000029
 11804.656659  86735 175028  38820    0  0  0  1009.45670  1736.1152  951.61581    0  1484.8204  1538.9173  1787.2316  1575.9197  1652.5961  2900.28190  1892.5478  1125.5880    0  11214    0 2000029
 11814.582912  86266 174545  38776    0  0  0  1023.48920  1856.8292  1076.34580    0  1577.7348  1644.2448  1860.6542  1669.6754  1812.4341  2413.22390  2042.8300  1139.4819    0  11152    0 2000028
 11824.535239  86556 175598  38850    0  0  0  1098.54180  2116.7181  1109.46530    0  1811.5768  1787.7388  2102.9484  1888.0527  1972.3385  2292.06070  2169.1124  1263.0364    0  11184    0 2000029
 11834.493925  86451 175883  38776    0  0  0  1268.19940  2431.3425  1296.15240    0  1926.5904  2090.1527  2376.7726  2159.0480  2383.7979  3465.47630  2552.9523  1365.7322    0  11162    0 2000028
 11844.388767  86338 176087  38749    0  0  0  1610.49500  2923.8869  1609.90170    0  2534.9057  2618.3350  2948.4142  2716.7344  2848.9590  915.93168  3168.3164  1655.8004    0  11152    0 2000029
 11854.249966  86234 176259  38727    0  0  0  2174.79010  4238.4175  2211.57170    0  3632.9048  3718.5728  4184.0693  3913.8966  4060.4779  1627.80920  4599.1776  2047.0432    0  11135    0 2000028
 11859.208996  86115 176187  38677    0  0  0  3123.78480  5740.1066  3056.62430    0  4841.1847  5240.7090  5515.7098  5314.1700  5804.8882  2791.93940  6144.2432  2747.4960    0  11118    0 2000029
 11859.589928  86025 176016  38709    0  0  0  3133.07060  5988.9169  3052.26130    0  5096.6738  5457.1278  5784.8417  5489.1940  5817.4790  2425.23450  6358.3425  2923.3256    0  11110    0 2000028
 11859.995365  85972 175953  38727    0  0  0  3218.29140  6062.4814  3134.09160    0  5182.2675  5424.0852  5830.4909  5610.0228  5900.1098  3402.53150  6508.0534  2891.6735    0  11144    0 2000028
 11860.419192  85910 175818  38672    0  0  0  3209.96530  6447.7639  3293.19920    0  5338.0052  5547.4075  6027.8606  5664.2533  6092.4199  2158.48190  6640.3970  3045.6283    0  11137    0 2000028
 11860.820095  85863 175702  38710    0  0  0  3448.45880  6450.0357  3416.39790    0  5464.9285  5968.8216  6093.3764  5950.5151  6330.1384  3049.92360  6970.7118  3081.0124    0  11126    0 2000028
 11861.236330  85876 175728  38718    0  0  0  3561.71850  6776.3648  3502.93890    0  5960.4349  6116.7633  6335.9797  6227.9484  6616.1020  1635.17140  7158.6481  3151.2414    0  11128    0 2000028
 11861.586786  85925 175800  38703    0  0  0  3768.58590  7067.1773  3604.83430    0  6093.6805  6315.9603  6676.7362  6477.3173  6911.8210  3364.32540  7331.4402  3282.2861    0  11136    0 2000028
 11861.952567  86018 175996  38760    0  0  0  3978.08510  7276.5835  3709.39950    0  6271.8921  6755.5480  6975.9739  6852.2556  7103.8223  3263.58510  7629.5802  3341.5946    0  11147    0 2000029
 11862.341331  86060 176086  38796    0  0  0  3943.37820  7559.4766  4047.11250    0  6595.7143  6902.4689  7092.3606  7017.3874  7320.8345  4496.34120  8213.8488  3480.1458    0  11149    0 2000028
 11862.759205  86077 176093  38717    0  0  0  4199.79220  7796.1174  4169.88580    0  6951.6856  7145.0478  7585.9168  7144.5406  7621.3420  3946.53240  8346.9855  3586.1906    0  11153    0 2000029
 11863.212318  86085 176108  38769    0  0  0  4477.36400  8249.6337  4387.55880    0  7180.7185  7551.3553  7817.8976  7789.9011  8015.0858  4295.76920  8952.5098  3868.2050    0  11150    0 2000028
 11863.576670  86087 176052  38732    0  0  0  4549.74350  8793.2203  4491.94500    0  7578.0162  7877.0914  8279.6305  8103.6208  8348.2765  3537.53340  9185.2916  4018.8730    0  11147    0 2000028
 11863.927266  86079 176047  38748    0  0  0  4986.54570  9269.8773  4746.07710    0  8011.6032  8377.9119  8692.5340  8545.9973  8757.9706  4147.07430  9722.6037  4168.2574    0  11150    0 2000028
 11864.285539  86084 176011  38794    0  0  0  5132.73930  9619.7446  4840.19990    0  8384.5130  8971.4920  9007.1139  8989.4991  9213.9780  3938.78330 10138.4570  4372.7223    0  11152    0 2000028
 11864.665271  86071 175957  38737    0  0  0  5285.62410 10067.8730  5336.59830    0  8677.4362  9173.7384  9478.7244  9327.8281  9807.8487  3896.12900 10663.4320  4545.4641    0  11151    0 2000028
 11865.133844  86065 175933  38714    0  0  0  5511.36090 10728.2910  5571.73990    0  9169.4435  9744.8730 10128.5990 10226.1080 10517.1000  4272.58630 11315.0720  4809.5870    0  11149    0 2000029
 11865.541197  86055 175877  38804    0  0  0  5993.61690 11388.6080  5872.13030    0  9808.4833 10347.0870 10651.8070 10544.2900 10816.1700  3904.57230 12046.2160  5062.2135    0  11147    0 2000028
 11865.916416  86057 175804  38700    0  0  0  6378.27980 12063.4620  6231.10720    0 10244.4680 11113.6700 11193.8340 11409.3440 11692.7080  2803.77460 12776.3680  5343.9771    0  11144    0 2000028
 11866.268684  86042 175753  38763    0  0  0  6766.26590 12853.3260  6660.36400    0 11299.3850 11780.3440 12024.9500 12135.0590 12510.0530  2535.39470 13596.1060  5723.0379    0  11144    0 2000027
 11866.620973  86020 175672  38798    0  0  0  7284.78930 13669.2880  6916.48280    0 12129.8190 12550.5230 13007.5640 12754.9910 13159.1870  3867.70280 14532.6620  6201.5439    0  11143    0 2000028
 11866.996261  86014 175602  38769    0  0  0  7785.20700 14920.1310  7624.05190    0 12947.1210 13533.2090 13738.7700 13974.6360 14228.7740  4799.05990 15792.5670  6440.8703    0  11144    0 2000028
 11867.458894  86004 175491  38746    0  0  0  8615.88200 16369.1180  8462.35830    0 14136.5390 15043.2220 15154.0790 15485.4760 15583.5880  5695.66550 17209.1070  7153.7391    0  11143    0 2000028
 11867.881729  86041 175500  38912    0  0  0  9306.43960 17603.2330  9113.72390    0 15331.6880 16309.3210 16452.3520 16572.5270 16991.7960  3615.33330 18862.6540  7428.2465    0  11110    0 2000028
 11868.272420  86029 175364  38817    0  0  0 10266.74000 19705.7420  9855.61740    0 16718.4610 18056.2000 17877.9740 18294.9920 18851.7100  6572.15730 20898.2160  8545.9133    0  11133    0 2000028
 11868.638620  86023 175252  38833    0  0  0 11163.58700 21689.5340 10945.77300    0 18809.6490 19728.8190 19874.3680 20408.1820 20696.8280  6506.05430 22801.8890  9391.0943    0  11148    0 2000028
 11868.997181  86027 175083  38832    0  0  0 12571.74100 24027.7980 12549.20200    0 21172.4660 22297.0780 22552.7210 22806.0740 23354.5870  6717.82130 25691.6430 10236.4060    0  11147    0 2000027
 11869.426258  86012 174855  38831    0  0  0 14731.24800 27804.9200 14261.59100    0 24147.1750 25320.8300 25693.3310 26312.9930 26744.5130  4405.40110 29011.9430 12008.4290    0  11142    0 2000029
 11869.835442  86004 174578  38815    0  0  0 16966.59900 32332.3900 16456.12400    0 28073.1250 29716.8270 29512.9400 30190.4260 31699.8280  9692.06960 33891.0560 13793.5560    0  11140    0 2000028
 11870.263048  85995 174232  38801    0  0  0 19568.00800 37421.8990 19198.33300    0 32752.1400 34879.2640 34875.8830 35355.9640 36472.8920  5456.28910 39517.9920 15971.9890    0  11140    0 2000029
 11870.664627  85986 173752  38752    0  0  0 23595.36400 44941.6000 23122.75900    0 39368.9720 41559.8620 41455.8600 42414.9000 43733.3300  3897.55170 47095.3780 19227.7620    0  11134    0 2000027
 11871.032510  85980 173135  38819    0  0  0 28330.20900 54992.4700 28433.35200    0 48642.0920 51247.0260 50809.4600 51877.5090 53512.4930  6718.68260 57879.7720 22939.0010    0  11136    0 2000028
 11871.428009  85970 172154  38763    0  0  0 36557.77500 69816.7950 36521.68200    0 61328.3990 65450.6300 64229.2640 66333.4000 67510.3040 10592.17600 73665.2120 29045.5950    0  11137    0 2000027
 11871.795940  85956 171000  38699    0  0  0 47032.27400 89016.9620 46548.46200    0 78959.0940 84125.3070 81641.2220 83778.0950 87020.3070 12435.24000 93087.9980 38235.8150    0  11137    0 2000029
 11872.196091  85956 169561  38709    0  0  0 58844.78400 111538.6300 58534.12600    0 99446.1450 105016.2200 102297.4400 105844.0900 108240.5000  7683.39240 116377.1700 47474.6270    0  11134    0 2000028
 11872.619269  85934 167881  38625    0  0  0 72256.06800 139143.0200 73103.44800    0 124328.3300 130076.5700 127174.7900 130895.3900 132409.6200 58537.13600 144331.1600 57917.3850    0  11133    0 2000029
 11873.022543  85929 166137  38616    0  0  0 87640.37900 167484.2700 88179.70100    0 149158.5600 156406.5200 152163.6900 156821.0800 158743.4200 76791.16100 172683.5200 70535.0040    0  11135    0 2000027
 11873.392108  85919 164509  38550    0  0  0 103065.79000 192930.1500 102246.78000    0 170657.0300 181051.3800 175643.8000 181034.8600 185476.9300 88614.60100 198926.0000 84291.7910    0  11134    0 2000028
 11873.790835  85899 163070  38530    0  0  0 113447.03000 216263.2100 114861.91000    0 192182.8600 201679.9100 197577.9200 203109.1000 204872.2800 25128.11100 223203.1400 93362.3130    0  11131    0 2000028
 11874.152779  85880 162308  38470    0  0  0 119421.08000 230744.5300 122959.55000    0 203447.4500 215153.9000 211389.3700 215712.9900 216612.4300 43508.23300 237521.2900 98486.4710    0  11128    0 2000029
 11874.546956  85859 162009  38500    0  0  0 121846.35000 233760.8400 125080.11000    0 208809.9500 219639.6800 216725.1500 221222.0200 221370.9400 40033.23100 243684.0900 102270.2200    0  11090    0 2000029
 11874.967236  85831 162008  38463    0  0  0 125246.09000 238919.2400 127227.16000    0 212038.7500 221701.7100 219550.3800 223340.0000 226083.5800 21832.43600 246724.5800 105352.4200    0  11079    0 2000028
 11875.379876  85787 161996  38477    0  0  0 126006.27000 238905.5300 127391.10000    0 213262.3400 222947.3000 220805.1100 224094.8200 227396.5300 18113.51400 247009.1800 105072.8300    0  11095    0 2000028
 11875.806353  85689 161712  38459    0  0  0 129661.66000 247950.5100 132135.15000    0 220038.0900 231251.9500 228636.4300 232350.8900 234753.5000 49847.39400 256800.2000 109076.5900    0  11063    0 2000028
 11876.160751  85484 160821  38527    0  0  0 135806.07000 259893.8700 138727.48000    0 229213.6200 241647.0000 239004.4200 243397.4800 242857.0500 113326.69000 266803.7700 112755.0000    0  11035    0 2000028
 11876.524376  85122 159328  38505    0  0  0 143999.11000 277374.3000 148638.97000    0 245702.9900 258757.0100 255480.0500 259478.9100 259360.2500 90605.31500 286483.8700 121231.8400    0  10990    0 2000029
 11876.915644  84929 157878  38609    0  0  0 158030.91000 299424.1800 159472.59000    0 265459.1500 277739.8500 274327.3900 278142.1100 283246.1600 148609.63000 307686.0000 133886.4600    0  10967    0 2000028
 11877.339164  84782 156677  38603    0  0  0 167148.41000 319353.2500 170552.07000    0 279982.6900 295599.1400 292283.3900 295647.4500 298925.3300 151063.24000 327504.9700 141016.8400    0  10951    0 2000028
 11877.762713  84745 156005  38666    0  0  0 169287.32000 333854.6100 178909.99000    0 292937.1500 308588.3700 306054.8500 309846.7500 307800.2300 165679.95000 338744.9700 143692.0600    0  10947    0 2000028
 11878.204711  84795 156193  38673    0  0  0 171911.45000 332863.8400 177543.78000    0 292921.8900 308008.7400 303542.7500 307728.4500 307298.6500 30940.32000 339542.2900 146063.3800    0  10993    0 2000029
 11878.571533  84980 157256  38681    0  0  0 169122.58000 318591.5300 171614.54000    0 281398.6600 296649.1300 294147.5600 297813.1800 301947.9900 153552.15000 329078.9300 143662.1200    0  11015    0 2000028
 11878.939914  85199 158863  38738    0  0  0 154611.77000 299236.8800 159859.14000    0 263227.7200 276728.6200 274693.4500 277571.7000 280090.9800 150725.39000 306397.0500 130549.7900    0  11042    0 2000028
 11879.334413  85286 160420  38705    0  0  0 141225.05000 271596.7400 145545.27000    0 239772.0100 252025.1500 252210.6700 254549.1700 254685.7400 138230.56000 280895.1500 119635.4300    0  11054    0 2000028
 11879.755037  85347 161813  38761    0  0  0 129509.45000 247587.2300 131956.91000    0 219892.5200 229465.7600 229328.9600 232259.6000 233231.4900 126570.60000 255324.4200 109353.8200    0  11060    0 2000029
 11880.181832  85296 162788  38782    0  0  0 118851.04000 226781.8500 120561.95000    0 200001.5300 210212.5100 208805.7600 211256.4500 212643.3200 115561.69000 232977.6100 99653.6850    0  11057    0 2000028
 11880.620942  85283 163662  38782    0  0  0 108976.67000 208915.6400 110226.64000    0 185521.0800 195373.5100 191523.3000 196400.6700 197717.4800 106444.01000 215065.7700 91991.4310    0  11054    0 2000028
 11880.981773  85303 164282  38846    0  0  0 103024.86000 197854.1400 104869.17000    0 174315.7100 183603.2600 181505.2200 184912.9000 185930.2100 100804.97000 203472.6200 86749.8970    0  11053    0 2000028
 11881.341092  85357 164750  38863    0  0  0 97107.01800 190303.0900 100494.00000    0 167811.9200 176030.2500 173101.6200 177594.0700 177920.6300 97672.55400 195675.6300 81802.6280    0  11065    0 2000029
 11881.723467  85488 165225  38831    0  0  0 96663.64200 186083.9600 97794.44400    0 163917.4200 173341.3400 170209.8600 174937.8700 175584.1800 91088.52900 191905.3500 80428.2930    0  11082    0 2000028
 11882.135048  85626 165624  38850    0  0  0 95047.52300 184136.5100 96776.56900    0 162513.2500 171366.8500 167885.2400 171775.7800 174237.6800 87836.22000 188640.0400 81162.5020    0  11098    0 2000028
 11882.560481  85754 165922  38863    0  0  0 94789.77100 182612.9700 96939.04400    0 162622.2700 170346.9200 168125.4200 172275.6500 172337.8200 93262.30000 188531.8600 80005.1480    0  11111    0 2000028
 11883.004377  85780 166048  38864    0  0  0 93938.48500 182250.7900 96034.92100    0 161978.2500 170561.7900 165981.3800 170419.1800 171149.2900 93175.26200 186933.3900 78051.7290    0  11114    0 2000029
 11883.365355  85776 166049  38886    0  0  0 94028.05900 182303.6000 95632.94300    0 161498.0100 168917.0800 166251.0800 170568.2800 171158.4600 89229.86700 187230.1800 77792.8570    0  11115    0 2000029
 11883.718675  85768 166041  38850    0  0  0 94876.48700 181882.4100 95511.22100    0 161048.4500 169050.1100 166041.6100 169713.4600 172032.5100 92364.67700 186963.3800 79236.2050    0  11111    0 2000028
 11884.088915  85745 166075  38865    0  0  0 94964.90000 181739.0100 95244.19800    0 160347.3700 168972.5700 165127.3100 169075.9200 171871.3000 93951.69900 185625.7400 79002.6850    0  11110    0 2000028
 11884.488371  85738 166130  38875    0  0  0 92442.54400 179330.8200 94578.16100    0 159552.1000 166336.4400 162864.7200 167597.9100 169288.4400 90293.86800 183873.7300 77780.4140    0  11113    0 2000028
 11884.909365  85736 166164  38824    0  0  0 92323.03700 178713.9600 93607.48500    0 158045.8500 165321.6000 162815.1500 167638.6100 168282.6200 88502.93000 183589.6300 76403.6210    0  11111    0 2000029
 11885.359586  85721 166192  38819    0  0  0 92917.50100 178078.6700 93876.05600    0 157612.5400 165783.7500 162490.2300 165952.4200 167857.7000 90463.77500 183163.0800 77437.4980    0  11113    0 2000028
 11885.726856  85712 166255  38886    0  0  0 92038.38100 177720.0000 93305.89300    0 156651.3000 164893.9900 161406.5300 165555.9500 166950.1300 90512.34500 182417.8000 77168.7230    0  11112    0 2000029
 11886.081855  85726 166355  38881    0  0  0 91746.76400 174237.3600 92547.89000    0 155587.9700 162182.7100 160062.3900 163777.6200 167075.3100 86430.78200 178944.4200 76740.1940    0  11108    0 2000028
 11886.450708  85696 166375  38848    0  0  0 90034.38700 174798.4700 92182.31900    0 155005.1600 162889.1300 158252.4000 163573.3100 164318.5500 83873.58800 178790.0600 75132.1660    0  11105    0 2000028
 11886.850324  85681 166431  38838    0  0  0 88500.27200 172691.7100 90380.27500    0 153097.8300 160538.1000 157378.6600 161741.3000 162153.1600 80829.51700 177492.7700 74148.8340    0  11106    0 2000029
 11887.279174  85666 166455  38797    0  0  0 89693.34600 171629.3800 90565.21100    0 153008.3400 159276.5400 155655.5500 160820.4500 163169.8800 84395.33800 177348.5900 74733.2290    0  11104    0 2000028
 11887.746487  85649 166562  38836    0  0  0 88988.57900 170098.7900 89489.99100    0 150922.0600 158118.0400 155153.5300 159706.6700 161295.0200 84267.45000 174276.9200 75117.1320    0  11101    0 2000028
 11888.126206  85637 166587  38811    0  0  0 87047.71300 170149.2900 89619.89500    0 149214.4900 157752.0000 154063.4900 157856.0400 158629.9100 84469.80400 173655.7200 72414.2190    0  11099    0 2000028
 11888.489037  85620 166572  38725    0  0  0 86784.71700 170145.5500 89123.77200    0 150223.7000 157593.6100 155273.7400 158718.2100 159565.6500 83019.75600 174347.6600 72578.5090    0  11097    0 2000028
 11888.859579  85602 166575  38774    0  0  0 88729.53500 169975.5200 88821.17900    0 150447.5400 157340.9900 154872.0100 158418.0000 159322.0000 85943.40400 173852.9500 73022.4220    0  11094    0 2000028
 11889.253209  85584 166563  38643    0  0  0 87832.39900 169283.0500 88755.35200    0 149620.5000 156432.3500 154399.4400 158466.6500 160407.5800 86189.62400 174174.0200 73514.2590    0  11094    0 2000029
 11889.677622  85560 166519  38685    0  0  0 88569.03600 168339.0300 88980.58800    0 148776.0700 156527.4200 154174.3300 159019.4800 159338.8600 83575.29900 174298.5800 73871.1470    0  11089    0 2000028
 11890.100527  85536 166493  38604    0  0  0 87082.23900 167467.9300 88450.05800    0 148019.1600 156507.1900 153171.2100 157920.7100 158769.7400 86569.58900 172645.2700 73118.4020    0  11087    0 2000028
 11890.529614  85509 166453  38475    0  0  0 87812.54900 168966.3900 88958.88800    0 148602.2400 156671.2100 153319.2600 157641.6900 159008.3300 84231.43900 172942.8700 73502.9270    0  11079    0 2000028
 11890.884904  85481 166365  38325    0  0  0 88193.91900 169061.9000 88350.66900    0 149950.0100 157442.8400 153746.7900 157958.1700 159566.9700 29514.89000 173891.4700 73379.0660    0  11079    0 2000027
 11891.243292  85451 166372  38331    0  0  0 87458.13400 166670.8700 88157.65500    0 148798.8900 155641.9100 152072.5000 155497.4800 158362.3000 79966.55800 171084.7200 73353.6260    0  11073    0 2000028
 11891.627853  85402 166278  38185    0  0  0 86425.18500 167439.3500 87806.54100    0 148172.1300 155031.8600 152064.9400 156485.7900 157410.9800 79063.47100 171388.3900 71462.6140    0  11068    0 2000028
 11892.043206  85331 166161  38197    0  0  0 85803.41300 167546.6800 87544.87000    0 147445.6400 155965.2000 153514.7700 157110.1100 157246.5800 85554.61000 171874.0200 71205.2370    0  11031    0 2000028
 11892.463205  85239 166024  38189    0  0  0 86363.11700 165890.5800 87298.63600    0 147437.3800 154681.7000 151138.7200 155402.9800 156054.6600 80707.78800 170236.4300 71837.4830    0  11042    0 2000028
 11892.900159  85101 165801  38271    0  0  0 87693.81000 165536.6100 86921.13900    0 146911.2900 154352.2000 151256.1300 155626.5500 156979.7300 76743.67800 170287.5000 72121.8160    0  11024    0 2000028
 11893.258670  84921 165490  38383    0  0  0 84044.76300 163887.8100 86656.22500    0 145241.0600 152766.4200 149026.7600 154054.8600 153899.3100 80619.89600 168445.0600 69633.6660    0  11004    0 2000028
 11893.615664  84608 164898  38482    0  0  0 83581.08400 163210.2100 85998.38400    0 144267.3900 151999.2800 149100.6000 152275.6600 152572.4300 80705.97200 166964.6100 70129.6740    0  10967    0 2000028
 11893.994225  83950 163618  38534    0  0  0 84158.01600 161238.9100 84316.60700    0 143138.9300 149092.6400 146393.2100 150442.0000 152616.4300 77175.01500 163796.8700 69758.8980    0  10888    0 2000028
 11894.403590  82872 161514  38616    0  0  0 82074.20900 158447.5100 82638.86600    0 140063.9800 147253.2500 143943.2800 148734.3900 149752.7500 79178.43900 161887.4300 68569.7380    0  10755    0 2000028
 11894.826836  82168 160196  38710    0  0  0 80781.55900 155632.6200 82134.70000    0 137784.4800 144789.4500 142135.0400 145512.5500 146832.4900 78678.82700 159524.2600 67255.3090    0  10670    0 2000029
 11895.228563  82176 160259  38779    0  0  0 81383.82200 156531.0000 82089.88300    0 138079.0900 144601.0500 141816.2000 145505.1400 147072.0000 79593.08400 159396.5700 67456.1510    0  10671    0 2000028
 11895.642633  82814 161566  38920    0  0  0 78861.47700 155648.4600 81287.10400    0 136932.8600 144130.8300 141562.5600 145212.1700 145078.2800 78152.51300 159620.8300 66148.5610    0  10745    0 2000029
 11896.001312  83774 163508  38874    0  0  0 80801.52000 157138.7700 82284.45900    0 139258.0200 146076.2700 143322.9200 146618.0700 147590.6300 77938.45900 160257.0100 67566.6000    0  10862    0 2000028
 11896.380026  84792 165596  38948    0  0  0 82536.40900 158190.6900 82719.51700    0 139478.6500 147072.0600 143989.3900 148533.3500 150584.8700 77662.16100 162982.9000 68702.2640    0  10984    0 2000028
 11896.788019  85471 166946  38975    0  0  0 81539.18500 157956.5900 83324.68600    0 140849.0600 147441.0400 145307.1800 148838.8400 148586.8100 74928.74500 163666.8500 67913.3970    0  11065    0 2000029
 11897.220675  85739 167512  38981    0  0  0 81357.82000 159210.9600 83225.08400    0 140429.8400 147897.4400 144706.7200 148576.5300 149702.9100 73104.14900 164080.6300 67461.8680    0  11098    0 2000027
 11897.634886  85767 167592  38972    0  0  0 83574.14300 158618.7300 82990.56100    0 140224.3500 148132.6100 144708.5800 148858.9100 149828.4200 80192.19900 162739.5800 68248.6040    0  11101    0 2000028
 11898.010626  85764 167628  38966    0  0  0 82111.26600 158337.9200 82711.13800    0 140581.9000 147061.6300 144247.2200 149135.3600 150203.0600 80227.53500 162527.0100 68350.7920    0  11099    0 2000028
 11898.421812  85745 167648  38994    0  0  0 80973.67100 156829.6300 82378.40000    0 137980.5900 145661.6200 141785.0800 145642.2600 146366.6500 77425.46300 161308.1900 67390.8170    0  11098    0 2000028
 11898.800683  85730 167644  38999    0  0  0 81001.48300 156476.3900 82738.82900    0 138717.3300 145232.3900 142821.5600 147007.0200 148065.4600 76901.28000 160722.1100 67925.5240    0  11097    0 2000029
 11899.207303  85709 167636  38952    0  0  0 79984.14700 154931.2200 81248.93400    0 137211.7100 144859.1600 141015.9900 145337.1800 146152.6400 67288.28200 158913.9600 66220.9280    0  11098    0 2000028
 11899.638598  85696 167658  38961    0  0  0 80055.64400 155201.5200 81235.51400    0 137422.5500 143691.1700 141177.5900 145608.4300 145737.0000 77067.08500 158941.7700 66117.6440    0  11093    0 2000028
 11900.054520  85671 167650  39001    0  0  0 79156.21400 153133.4100 81064.42600    0 136980.2500 143598.7800 139230.3000 143874.2300 145958.9500 50884.86600 158088.3300 66973.7480    0  11089    0 2000028
 11900.433496  85659 167690  38968    0  0  0 79473.23100 153334.8300 80979.48300    0 136105.8500 143514.3200 139685.3300 144590.7700 145949.9600 25405.86100 157996.2000 66363.2420    0  11086    0 2000029
 11900.789386  85642 167713  39009    0  0  0 77774.32600 153034.1900 80382.73100    0 135160.6700 141035.7300 138835.3000 142799.7300 142822.4100 65984.81600 156752.9600 65134.5730    0  11086    0 2000028
 11901.197685  85636 167751  39004    0  0  0 78873.13300 151483.6500 79478.30600    0 134847.2800 141028.2600 138169.4400 142222.8300 142771.2100 71652.08200 155975.1000 65875.6720    0  11084    0 2000028
 11901.592145  85625 167756  38953    0  0  0 78809.84100 150218.0800 79313.53100    0 133666.5200 141583.1400 137236.6700 140776.9000 142465.5700 72469.18200 153989.4800 65979.6500    0  11081    0 2000028
 11902.017451  85612 167786  38974    0  0  0 78610.04400 150634.6600 78462.69700    0 133427.3600 139738.1700 137114.3600 141125.0600 142053.0200 71458.74300 154228.4200 64935.6650    0  11077    0 2000028
 11902.428918  85605 167834  39000    0  0  0 76047.87000 148038.3700 77964.27700    0 131188.7900 138091.0300 134672.9900 139162.8800 139842.2600 69268.61400 152206.9500 63170.6770    0  11083    0 2000028
 11902.808048  85591 167873  38997    0  0  0 76808.82200 147306.4000 77405.61300    0 130121.5700 137662.4200 134467.9600 138650.3800 139712.3000 63500.39800 151695.8800 63568.6730    0  11076    0 2000028
 11903.165623  85582 167935  38986    0  0  0 75176.92400 146707.5700 77013.96400    0 130134.7600 136167.4300 134049.8400 137789.3500 138717.0500 72710.70400 150874.3400 62684.7270    0  11080    0 2000028
 11903.523221  85572 168176  38982    0  0  0 74209.77900 144844.8700 75460.40000    0 127472.1700 133989.8200 131372.9800 135218.6300 136514.2200 66205.00000 148335.4100 61434.3250    0  11080    0 2000027
 11903.757521  85571 168210  38960    0  0  0 75425.82800 143792.6300 75980.20900    0 127243.9500 133056.5600 130497.4900 134994.3700 136027.0800 54320.62000 147534.2500 62164.6890    0  11079    0 2000028
 11904.847446  85548 168396  39095    0  0  0 71612.79900 140555.0100 73730.52500    0 123668.1200 130963.9600 128871.1600 130780.0500 131755.0200 42507.05300 143801.2300 59558.4850    0  11076    0 2000028
 11905.900565  85515 168556  39034    0  0  0 70772.42300 137144.4500 71903.63200    0 121009.6800 127708.1100 125090.0600 128210.1800 129140.9400 66640.54500 140899.8700 58110.9850    0  11070    0 2000028
 11907.003228  85478 168692  39006    0  0  0 69994.60900 133425.9400 70380.76300    0 118336.4200 123783.5400 121390.8400 124672.9700 126447.7900 61948.09500 137289.1200 57762.2670    0  11065    0 2000029
 11908.161632  85408 168769  39031    0  0  0 67125.81800 129733.2400 67702.18000    0 115058.8800 120743.7700 117890.1300 121177.6900 122955.7400 63167.39800 133310.6800 55828.1200    0  11053    0 2000029
 11909.284777  85416 168944  38943    0  0  0 64787.87100 128350.1000 66623.02400    0 113226.9800 118857.9100 116472.2500 119432.7200 121393.6700 63089.90200 131292.3100 54062.1310    0  11057    0 2000029
 11910.463694  85417 169084  38995    0  0  0 65068.25200 125556.1100 65877.45900    0 110694.1000 116169.6400 115158.6900 117668.5300 118509.7500 62846.95000 128368.6100 53649.7510    0  11054    0 2000027
 11911.590366  85388 169137  39012    0  0  0 64288.66300 124020.6700 65017.39200    0 111096.5400 116085.5100 113682.6700 117453.1500 117897.0700 63644.95900 128341.4400 54018.0780    0  11051    0 2000029
 11912.828412  85425 169236  39025    0  0  0 64961.99400 124108.7600 65432.18000    0 111287.4100 116325.8700 113967.5800 117006.1800 119496.3200 64006.63100 129156.4000 54215.5730    0  11054    0 2000028
 11913.981789  85401 169199  38989    0  0  0 64639.42000 124633.4800 65641.90100    0 110936.6000 116964.0000 114984.1200 117985.1400 118633.0800 63190.78700 129352.1300 53500.3630    0  11049    0 2000028
 11915.238873  85382 169160  39034    0  0  0 64284.99200 125153.2000 65365.86000    0 111047.8900 116814.9900 114470.6000 117591.5600 118779.7600 61290.67700 129586.1400 53824.3170    0  11049    0 2000028
 11916.462240  85367 169119  38980    0  0  0 66963.64800 127167.7100 66998.88500    0 113323.9100 118569.6000 116340.9700 119360.2300 121506.8400 64833.68500 130815.0700 55019.4960    0  11049    0 2000028
 11917.787842  85356 169020  38964    0  0  0 67096.30300 129468.4600 67518.30300    0 114951.4400 120395.1900 117676.8300 121227.0200 122950.8900 65410.38300 132870.2600 55794.3370    0  11045    0 2000028
 11919.034922  85340 168900  38978    0  0  0 67120.15900 131025.6000 68630.33200    0 115862.1100 121562.9200 118707.3000 123001.0900 123942.9000 64468.36100 134886.6900 56162.3870    0  11044    0 2000029
 11920.378109  85326 168847  38952    0  0  0 68237.01200 132661.4100 69288.94500    0 117356.4000 123469.3400 121154.7400 124396.6700 125073.4100 66365.56400 136635.0300 56719.3490    0  11043    0 2000028
 11921.723149  85308 168795  38981    0  0  0 68654.39800 133995.0000 70330.80400    0 118724.9500 124518.8500 122841.8900 125078.7500 126482.2700 63856.70000 138018.9800 56557.3110    0  11041    0 2000027
 11923.014368  85283 168678  38975    0  0  0 70356.63300 135942.8500 70961.81500    0 121445.6800 127306.0600 124743.7300 127946.0700 128995.8100 68234.13600 140672.6500 58720.0250    0  11034    0 2000029
 11924.389402  85259 168559  38928    0  0  0 71437.36000 136962.3400 72407.23700    0 121297.6100 127796.9900 124862.1100 129250.6300 129226.2500 66332.06400 141278.5200 59038.2330    0  11033    0 2000028
 11925.746191  85235 168475  38936    0  0  0 71638.73600 140262.6300 73151.38600    0 122845.3100 130517.6900 126457.1300 130891.0400 130992.9000 67581.66200 143526.0800 58905.2030    0  11030    0 2000028
 11927.234842  85216 168324  39001    0  0  0 72306.87600 141795.4000 74157.96700    0 125023.9400 132352.9200 128982.2900 132914.0900 133871.1700 72050.13000 145679.5700 59787.0770    0  11025    0 2000028
 11928.587644  85193 168281  38933    0  0  0 74733.33000 143764.3900 75067.68700    0 126954.4300 133129.7800 130864.7600 133571.0100 136068.6600 72352.16000 147622.7400 61739.0040    0  11023    0 2000028
 11930.064627  85181 168158  38995    0  0  0 76368.51100 145586.0200 75971.92100    0 128649.5900 135677.6000 133437.2200 136972.0900 139234.5500 72202.25200 150176.4000 63311.4640    0  11022    0 2000029
 11931.480030  85153 168050  38982    0  0  0 76146.99300 147538.5200 77489.16100    0 130567.5400 137001.4100 134260.3400 137881.2000 138803.8100 60360.51200 151743.4500 63689.0390    0  11019    0 2000028
 11932.974781  85131 167907  38870    0  0  0 76800.00900 150594.6300 79471.66900    0 132074.7700 140089.8200 136861.3900 140944.2300 140433.9800 75522.24300 154401.8300 63326.7140    0  11014    0 2000029
 11934.463713  85106 167818  38917    0  0  0 78998.61000 152087.9500 80211.30300    0 134513.3100 140785.4400 138500.8300 142564.4700 143864.1100 74351.26300 155577.4600 65165.0450    0  11010    0 2000028
 11935.911173  84875 167300  38961    0  0  0 81750.97500 153578.1100 81430.09500    0 136943.7400 143477.4300 140584.1600 144445.5500 147418.0100 77321.39200 158964.5200 67073.1620    0  10981    0 2000028
 11937.545031  85055 167598  38890    0  0  0 80108.74100 156201.3300 81654.24800    0 138296.8700 145125.9100 141358.9600 146250.8800 147429.1100 77960.63000 159609.3600 66631.1660    0  11000    0 2000029
 11939.094049  85103 167632  38963    0  0  0 82350.99200 158248.3300 82450.44800    0 140225.2200 147187.7500 144463.9200 148147.0200 149458.9800 77317.89100 162903.0100 67988.9180    0  11010    0 2000029
 11940.609349  85087 167555  39011    0  0  0 83621.34500 161098.9200 84333.39700    0 141372.7900 148719.1800 145749.4400 150075.3700 152543.2700 81115.91100 164803.3300 69423.2570    0  11009    0 2000028
 11942.215031  85068 167488  38910    0  0  0 84304.56600 162228.0000 84988.20800    0 144297.7300 151150.1400 147246.1000 151981.0300 153530.9400 81475.54400 166396.3400 69857.1120    0  11007    0 2000028
 11943.741998  85040 167437  38964    0  0  0 84931.75800 162802.0600 85119.86500    0 145143.5900 152741.5000 149456.8100 153362.1900 154248.4900 82692.84100 168139.1500 70433.6870    0  11004    0 2000028
 11945.402870  85020 167429  39006    0  0  0 86081.02800 162997.3500 86583.63600    0 145364.5400 152739.0800 149869.8700 153472.5800 155492.3900 79945.12100 168421.6700 70849.2540    0  11000    0 2000029
 11947.078186  85003 167394  38936    0  0  0 85037.80700 164941.8400 85891.03000    0 145905.2600 153526.7200 150426.9300 153906.5000 155619.6000 80897.81700 170308.6100 70905.1330    0  10998    0 2000029
 11948.682526  84985 167413  38908    0  0  0 85296.12700 165210.0700 86268.53400    0 145647.3500 153544.1900 150468.2900 154627.5800 155776.6800 83514.04300 170074.0600 70131.9700    0  10991    0 2000028
 11950.386742  84977 167467  39040    0  0  0 86145.42300 165756.9400 86560.70300    0 145787.4100 153420.2200 150346.5100 154496.0200 155694.4300 82947.71700 169671.4300 71281.9600    0  10988    0 2000028
 11952.128753  84949 167489  38941    0  0  0 85916.36600 164899.1300 87330.40400    0 146901.8400 154773.5400 151475.6900 154274.3100 156410.1100 77200.18400 169864.2800 71227.8010    0  10984    0 2000029
 11953.765561  84930 167507  38940    0  0  0 83121.29200 163544.4700 86332.31500    0 144985.6000 153285.4600 150553.9100 154169.4800 153216.5900 33115.37200 169256.9200 69740.7640    0  10982    0 2000028
 11955.479024  84908 167555  38952    0  0  0 84835.13000 165534.6700 86546.94500    0 145296.5400 153506.2400 150032.9700 154824.1900 154210.1600 43346.60700 169057.2000 69943.2500    0  10979    0 2000028
 11957.317430  84886 167620  38957    0  0  0 86813.68900 164441.2100 86547.15400    0 145812.2400 154129.2700 150530.5300 153949.7300 157186.1800 79148.27300 168566.6400 71798.0110    0  10977    0 2000028
 11959.120619  84875 167676  38972    0  0  0 85002.51600 165000.6700 85512.00600    0 145126.0800 152642.8200 148903.0600 153587.5800 154987.5500 71199.77600 168379.3900 70648.9730    0  10973    0 2000028
 11960.821631  84851 167715  39002    0  0  0 83143.67800 165180.1100 86484.29500    0 145313.7700 153434.9500 150475.0900 154741.0700 152750.1500 81473.78400 169027.5800 68762.4680    0  10970    0 2000028
 11962.661703  84823 167728  38951    0  0  0 84450.24000 163179.7600 86022.59100    0 143977.5600 152016.6000 148480.4400 152674.3900 153291.8000 79535.52200 167246.6600 69935.5030    0  10965    0 2000028
 11964.580224  84805 167789  38945    0  0  0 84924.93600 163587.7400 85806.59300    0 144646.2100 152214.8400 149544.0700 153706.7500 155126.2800 79429.24900 167113.0600 71371.8980    0  10964    0 2000028
 11966.457303  84788 167830  38995    0  0  0 84506.89600 163034.1900 86480.39800    0 144114.8600 151556.0700 149813.1700 152874.2800 153685.5500 72903.90900 167843.0600 69886.3510    0  10958    0 2000028
 11968.325628  84759 167857  38928    0  0  0 84744.28700 162564.3200 86041.11800    0 143997.8300 152207.9900 148192.8700 152797.9300 153425.5500 28872.10500 168256.6600 69938.8170    0  10952    0 2000028
 11970.239756  84739 167895  38970    0  0  0 84624.57900 163612.5000 86689.15000    0 145371.6600 151797.1800 149415.9800 152702.2000 154733.0400 79349.20200 167902.7300 70656.0940    0  10954    0 2000029
 11972.213765  84711 167925  38964    0  0  0 85880.14100 163533.4100 85936.74800    0 145296.9900 152262.9200 149721.8100 153657.8500 155005.1700 79599.20400 167928.7200 71868.0810    0  10954    0 2000028
 11974.149435  84689 167994  38851    0  0  0 84957.15000 163374.6000 85373.83700    0 145092.9500 152101.8900 149073.6800 153172.3700 154406.4000 74807.77700 166499.0900 70733.8230    0  10948    0 2000028
 11976.134115  84656 168025  38781    0  0  0 84162.49500 162791.1200 85199.69500    0 143815.9000 151478.7900 147524.0400 152208.6900 153302.6700 77367.29200 166033.7100 70041.1110    0  10945    0 2000028
 11978.150685  84575 167958  38543    0  0  0 83327.51800 160614.5900 84650.10300    0 143892.0000 149776.6900 146806.6400 151712.3100 152219.1000 51680.72500 165609.3900 69829.7090    0  10937    0 2000028
 11980.225723  83750 166400  38613    0  0  0 82733.49600 159539.4900 83617.56000    0 141100.6600 147775.8200 144609.0000 149417.9800 150792.2300 73559.83800 163841.2100 68334.6460    0  10834    0 2000028
 11982.248377  83807 166671  38619    0  0  0 82393.49100 158864.1700 83793.24300    0 140115.2800 147607.2300 143991.6000 148934.9400 150213.4300 74640.61900 163512.6200 69057.5820    0  10837    0 2000029
 11984.292038  84088 167358  38753    0  0  0 82400.16200 158296.1300 82836.14300    0 140473.9200 147092.7300 144588.9500 148313.6600 149735.1000 74494.94400 162662.9400 68548.4750    0  10870    0 2000028
 11986.384867  84160 167665  38807    0  0  0 80699.75200 157070.6300 82908.94700    0 138494.6700 146167.8000 143417.6900 148144.0000 148740.6000 76034.81100 160665.1100 66548.1470    0  10877    0 2000028
 11988.487821  84374 168273  38863    0  0  0 81434.55900 156150.3200 82029.55200    0 138595.6400 145955.4200 142577.7500 146518.8400 148438.7600 74986.96100 161161.0100 67213.1060    0  10903    0 2000028
 11990.586829  84436 168555  38796    0  0  0 81390.01100 155910.1700 81626.19300    0 137672.5800 144619.7900 141618.7000 145007.5700 148524.3500 75434.82400 159918.8600 67949.1600    0  10908    0 2000029
 11992.747615  84415 168632  38747    0  0  0 79926.29800 153558.7600 81226.07700    0 137394.6900 144254.3000 141089.5500 145109.0600 147873.4200 73034.06600 158844.2400 66933.6730    0  10907    0 2000027
 11994.937371  84399 168696  38756    0  0  0 78701.26700 153359.9800 81056.93100    0 136423.1500 143390.9400 140248.6100 144567.3000 143030.2100 73974.73400 157796.4400 64954.2690    0  10860    0 2000029
 11997.143598  84356 168735  38740    0  0  0 79949.98200 154033.4700 80883.30200    0 136043.6300 143185.6400 140026.6200 144294.6600 146049.0100 65750.13300 158867.2800 66562.4650    0  10860    0 2000027
 11999.355349  84327 168784  38714    0  0  0 78905.69000 153546.2900 80323.67900    0 135244.2600 142615.3200 139037.3300 142939.8300 143951.1100 38673.84800 156475.5300 66463.2160    0  10855    0 2000028
 12001.519341  84303 168843  38692    0  0  0 79130.88700 153389.9000 80567.79200    0 135737.4100 142497.0900 139054.3400 143726.6100 145089.1100 67220.66600 157304.0900 66428.5150    0  10852    0 2000028
 12003.674718  84282 168862  38672    0  0  0 77870.95200 152683.3300 80103.88800    0 134595.3400 142483.1300 139753.1000 142983.6700 143257.5000 66574.43300 157053.8500 64569.3230    0  10851    0 2000028
 12005.953216  84255 168891  38643    0  0  0 79139.03400 153246.6600 80580.99400    0 134890.6800 142541.2900 138643.1900 142929.2500 144886.5300 74195.88900 157894.0500 65262.0230    0  10848    0 2000028
 12008.229454  84224 168934  38662    0  0  0 80405.62300 153176.7700 81133.48000    0 136271.2900 143009.1300 139573.2100 143992.3300 145422.3600 74262.53300 157314.3100 66225.1500    0  10870    0 2000028
 12010.486162  84195 168909  38654    0  0  0 80666.24500 154008.5000 81537.84500    0 136602.2100 143141.9100 140242.0900 144435.8600 146330.6500 74888.94500 158280.1800 66151.4500    0  10877    0 2000029
 12012.787696  84165 168932  38600    0  0  0 79829.03600 155730.3500 81815.88400    0 137515.1800 144087.5100 140566.8900 145186.3400 146667.1500 75673.89100 159067.9700 66922.3390    0  10868    0 2000028
 12015.148248  84144 168933  38643    0  0  0 80263.10500 155463.5600 81134.43600    0 137280.1500 144141.7400 140923.9900 145303.7700 146924.5600 75416.05200 158843.6500 67064.8390    0  10869    0 2000028
 12017.489310  84101 168865  38610    0  0  0 81167.15800 157043.3100 82268.23000    0 138940.3700 145325.8200 142321.6900 146232.8600 147244.2100 75138.00000 160163.6600 67579.5550    0  10867    0 2000027
 12019.842303  84082 168902  38558    0  0  0 81567.63500 156104.5700 82151.83100    0 139041.4300 146078.4000 142358.5400 147579.6800 148315.6600 76042.55200 161773.1700 67675.7340    0  10865    0 2000028
 12022.167921  84033 168844  38552    0  0  0 81670.35700 156702.3800 81997.13900    0 138888.1300 146833.6000 143199.2200 147502.9300 149545.1900 76383.06800 162657.8900 68799.4050    0  10853    0 2000028
 12024.543225  83827 168464  38547    0  0  0 82169.49000 157145.1600 83088.93700    0 140389.0000 147828.9400 143565.1200 148329.5200 149862.2200 76965.47200 163183.1200 69061.6430    0  10828    0 2000029
 12026.965127  84002 168885  38596    0  0  0 83018.13400 159398.4700 83723.47900    0 141762.5700 147960.2700 145862.5000 150040.6400 150338.2500 76736.87500 163605.7500 68533.5760    0  10850    0 2000028
 12029.411639  83910 168810  38611    0  0  0 83844.26900 159291.9400 83198.76200    0 141798.2200 148111.6000 145043.1100 149643.6800 152920.7700 70997.56000 164522.9900 69730.9140    0  10837    0 2000029
 12031.788271  83941 168906  38599    0  0  0 84136.68300 160236.4800 84590.49700    0 142588.9600 149897.4700 146029.4100 150345.0500 153198.0900 76602.36000 165141.1600 70803.8420    0  10842    0 2000028
 12034.209982  83916 168891  38537    0  0  0 83465.98600 162143.4400 84452.25600    0 143100.3400 150271.3700 146599.9900 151612.8700 153527.3800 70818.51600 166214.6200 70280.1870    0  10839    0 2000028
 12036.736736  83872 168874  38542    0  0  0 82806.89800 161667.2900 85146.10600    0 143589.6600 150605.7700 146635.6300 152165.3800 151307.0500 74446.47700 166724.5100 68770.4830    0  10832    0 2000029
 12039.237753  83689 168589  38572    0  0  0 84256.39000 162425.6800 85544.73400    0 144170.2400 152078.0300 148179.1100 152095.6900 154332.6900 76264.79300 167057.5800 70559.2890    0  10806    0 2000028
 12041.695641  83645 168596  38562    0  0  0 85227.08700 161610.2700 85220.69400    0 144255.0900 151149.0600 148232.2600 151964.8400 155040.5100 51666.22600 166773.3600 71321.5180    0  10800    0 2000028
 12044.209798  83840 169075  38526    0  0  0 83168.11800 163206.2000 85646.59100    0 145195.5600 151436.6000 148567.5000 152547.1500 153114.8700 75985.37100 166847.6400 69178.3520    0  10822    0 2000029
 12046.718702  83698 168862  38520    0  0  0 84544.12100 163451.0400 85998.79400    0 144696.9900 151694.0600 148342.9200 152661.2900 153780.8000 81239.31600 166972.4300 69695.0400    0  10805    0 2000028
 12049.320302  83722 168981  38561    0  0  0 85408.27300 163170.2300 86104.57100    0 145035.7000 151896.9600 148751.7200 152579.8700 155790.0400 72498.22200 167064.4000 70977.5750    0  10809    0 2000029
 12051.831366  83747 169133  38544    0  0  0 85516.63000 164231.4400 86279.66500    0 145155.1900 152885.4000 148921.0700 153290.5600 155131.0200 57210.00000 167804.5200 71003.5180    0  10813    0 2000028
 12054.438368  83710 169181  38511    0  0  0 84159.60000 163987.5000 85998.23200    0 144887.2500 151590.9800 148736.2300 153663.3000 155412.8100 54907.33900 167617.4300 70349.6820    0  10809    0 2000028
 12057.136689  83689 169270  38483    0  0  0 85834.09800 165215.2500 86833.89300    0 145905.5700 153491.2400 149605.3900 154356.3400 156563.6600 72909.77000 169291.9100 71399.8660    0  10803    0 2000027
 12059.709617  83663 169287  38553    0  0  0 85290.23500 164799.3200 86363.51000    0 146116.3900 153170.2900 149785.5300 154089.6800 154585.5400 79452.11000 168360.2100 70557.5980    0  10800    0 2000028
 12062.310576  83643 169357  38420    0  0  0 86072.46600 165029.3200 87026.92600    0 147621.9000 154192.8900 150668.3800 155806.7600 157307.6900 65411.79000 170938.1200 71810.3960    0  10796    0 2000028
 12064.996630  83585 169337  38422    0  0  0 85113.91400 164994.6700 86691.82300    0 146479.3700 153847.8500 150127.5600 155512.1500 156196.8600 48022.07700 169448.8700 71657.4560    0  10788    0 2000028
 12067.672804  83561 169398  38365    0  0  0 85124.47600 164216.2200 86421.14900    0 146198.6600 154293.8000 149144.5800 154341.0800 156947.8800 29295.76100 169703.1600 71618.8990    0  10780    0 2000028
 12070.380307  83537 169428  38324    0  0  0 85033.24100 165153.8400 86377.73500    0 146325.6400 154631.7000 149594.1600 154885.4200 156010.9300 56949.61100 170193.8300 71243.5130    0  10775    0 2000027
 12073.014487  83492 169468  38339    0  0  0 85711.08900 165628.8300 87469.17600    0 144742.1300 153002.9800 149307.3800 153692.2100 154757.2400 40790.75900 168149.1200 70639.2090    0  10773    0 2000028
 12075.727595  83475 169523  38302    0  0  0 85724.80300 164791.4000 85860.38200    0 145847.7400 153553.5900 150325.1200 154091.9500 156536.5900 57941.52300 168872.1600 72396.5700    0  10771    0 2000027
 12078.446702  83445 169573  38285    0  0  0 85801.32100 165113.1100 86789.22500    0 145663.1900 153674.2100 149943.3000 155387.8600 156501.0900 55595.96300 170442.8500 71306.8390    0  10767    0 2000028
 12081.143224  83425 169621  38260    0  0  0 84239.80400 164846.6200 87485.77800    0 146246.6000 153986.3400 151118.6100 154835.5900 154646.4900 72279.51300 170256.0300 69553.3790    0  10765    0 2000028
 12083.906123  83382 169676  38249    0  0  0 86856.08900 165045.4400 87231.39400    0 146001.5800 153625.2100 149755.6500 155124.7400 156148.6200 61488.19800 169491.3200 71549.9700    0  10764    0 2000028
 12086.746618  83346 169747  38219    0  0  0 86063.33700 165762.3700 86698.54500    0 146841.5400 153673.7000 150681.8900 155188.9000 156572.5700 77354.35800 169857.8100 72643.8650    0  10759    0 2000028
 12089.628234  83315 169749  38223    0  0  0 85480.17400 165604.2500 86909.58600    0 146559.1900 153416.9300 150606.7300 154678.5100 155699.3000 75627.43300 169676.6700 70724.8110    0  10760    0 2000027
 12092.498511  83218 169701  38229    0  0  0 84990.80400 164755.2600 86879.57700    0 146953.4900 154640.7600 150952.5900 155627.9600 156625.5500 74731.59100 170015.2600 71459.9680    0  10748    0 2000028
 12095.400423  83230 169848  38151    0  0  0 86243.08700 165140.4500 87821.96300    0 145972.4100 153855.4500 150316.5100 154560.4100 157224.3500 61317.93300 169493.2000 72188.5520    0  10746    0 2000028
 12098.356316  83204 169922  38148    0  0  0 86539.32800 165714.2600 86736.88800    0 146935.9900 154079.0100 151160.0700 155776.2000 157308.3500 78950.41400 170604.9200 72076.7940    0  10741    0 2000029
 12101.237172  83183 170012  38215    0  0  0 84784.10900 164225.1200 87185.63800    0 145713.7900 153457.4300 149769.4200 155078.3100 155574.3100 78616.51900 169633.2200 71244.0700    0  10736    0 2000028
 12104.116230  83146 170061  38144    0  0  0 85178.78900 164624.8600 86542.37900    0 146531.8800 153638.4500 149912.9500 154683.8600 155029.3100 63210.69100 169575.4600 71584.4260    0  10729    0 2000029
 12107.098778  83118 170138  38163    0  0  0 85625.26400 165087.7600 86957.60600    0 146280.9000 154850.0500 150078.8700 154251.6700 156084.6400 43090.12100 169181.8500 71387.5850    0  10728    0 2000028
 12110.030145  83073 170167  38116    0  0  0 84530.63700 165163.0300 86957.23500    0 145446.0900 153447.6400 150009.2100 154029.1100 154803.0900 57590.54000 169911.6000 70775.0670    0  10717    0 2000028
 12113.071541  83030 170239  38188    0  0  0 84720.91900 164258.4200 86648.46600    0 144778.4600 152696.3600 150245.0400 154458.0900 155144.9700 72406.55900 169442.9000 70933.5010    0  10710    0 2000028
 12116.084129  83022 170313  38122    0  0  0 85725.07300 164918.6500 87590.05200    0 146458.1100 153997.1300 150345.2500 154678.1200 156117.1800 22264.44300 169017.4400 72008.5600    0  10709    0 2000028
 12119.114223  83000 170391  38122    0  0  0 85492.33200 164558.5300 86901.73700    0 146217.1400 153481.0900 149568.3900 154591.1500 155307.8500 60650.97900 169924.5300 69698.9130    0  10704    0 2000028
 12122.160247  82940 170422  38008    0  0  0 84931.32100 165285.8500 86410.07600    0 145010.8800 152516.5700 150064.0800 154624.2500 155495.8000 29105.32100 169262.9500 70873.7080    0  10697    0 2000028
 12125.225426  82899 170449  38013    0  0  0 86107.66400 164424.8500 86407.31200    0 145418.3500 153513.6200 149491.0800 154488.0700 156482.2100 77665.20700 169442.1200 71511.5150    0  10688    0 2000027
 12128.418657  82848 170462  38003    0  0  0 85604.66300 165064.2400 86778.03300    0 146143.0500 154063.2400 150544.9600 154666.4300 156289.2100 72757.17600 170022.9200 71275.9360    0  10683    0 2000029
 12131.557528  82758 170364  37565    0  0  0 84655.74400 164077.7500 86495.17900    0 145755.7900 152976.3100 149291.9000 154381.1400 155371.2200 76902.26500 169473.4100 70089.6220    0  10670    0 2000028
 12134.646759  81472 167767  37846    0  0  0 83566.06200 162363.9800 85287.50000    0 143324.8700 150978.8400 147221.1300 150876.4700 152213.2600 76760.18700 165601.1000 69043.8190    0  10520    0 2000028
 12137.816159  82811 170763  38094    0  0  0 86550.74600 166112.1700 87215.49100    0 146384.4700 155019.9200 150370.4400 154906.8900 157547.6200 80750.91400 171044.9700 72517.2060    0  10679    0 2000029
 12141.022535  82742 170734  37917    0  0  0 85609.91600 164540.8100 86849.73000    0 146818.5000 153739.8800 149547.4200 153582.0400 156946.0500 79330.84600 169075.7600 71182.4000    0  10666    0 2000028
 12144.254708  82643 170637  37874    0  0  0 84405.19100 165009.3000 87524.37200    0 147030.5400 154462.8500 151118.3800 154807.8000 154898.1900 82224.06500 170602.6500 70278.3410    0  10651    0 2000029
 12147.456503  82572 170599  37952    0  0  0 85766.00600 165664.7800 87665.80600    0 147624.4800 154584.9700 151217.6200 155982.8900 156945.9000 79099.25100 169943.1300 71421.1560    0  10640    0 2000028
 12150.643939  82605 170803  37896    0  0  0 87264.30100 166449.7900 87798.35200    0 146309.0200 154236.1500 150256.3500 155463.7000 158530.7200 82453.22800 170887.5000 72249.0730    0  10643    0 2000028
 12153.958486  82584 170875  37849    0  0  0 87405.69100 166354.9500 87598.93900    0 147188.9000 156033.7500 150845.0000 155535.0400 157557.3700 80398.77000 171023.7400 71536.4890    0  10638    0 2000028
 12157.290953  82545 170961  37883    0  0  0 85485.95200 165926.1200 87176.54400    0 146987.8600 154949.3100 151281.5800 156113.0700 155128.1100 75938.91800 170061.4000 71055.0830    0  10632    0 2000028
 12160.568935  82498 170946  37795    0  0  0 86206.01600 165604.9100 87345.27600    0 147713.3400 154523.3700 151933.8400 155956.0200 156434.1700 82930.31300 170514.1600 71285.6420    0  10626    0 2000028
 12163.930847  82461 171010  37744    0  0  0 87517.23900 167854.7400 88335.62800    0 148458.9200 156092.2600 152808.1000 157092.8500 159024.3600 82819.55400 172659.6300 72802.3780    0  10624    0 2000028
 12167.365549  82416 171033  37756    0  0  0 88008.15400 166508.6700 88629.17400    0 148748.3000 155765.3300 152150.2800 157050.7000 159550.8600 83835.26000 171695.4600 73021.8780    0  10620    0 2000028
 12170.734496  82357 171054  37753    0  0  0 85749.84700 168113.3500 88044.23700    0 148967.3300 156743.4400 153669.3900 157793.8600 157388.2200 84739.91300 171849.5600 71630.3290    0  10613    0 2000029
 12174.076296  82332 171124  37707    0  0  0 87357.12000 166967.5800 88268.54800    0 148319.9400 155458.7800 152116.2300 157922.0900 158311.1200 70357.08200 171810.9700 72530.5010    0  10612    0 2000028
 12177.582991  82272 171133  37756    0  0  0 87701.33500 167186.9800 88274.48100    0 147871.1300 155800.4800 152740.7900 155622.9300 159072.3500 70637.21000 172366.4600 73103.9980    0  10600    0 2000028
 12181.014207  82271 171282  37766    0  0  0 87739.19800 167068.0500 88482.38300    0 147736.2100 154484.2400 152083.0700 156226.5500 158471.7500 19909.87400 172345.2500 72465.4670    0  10595    0 2000029
 12184.450615  82229 171351  37675    0  0  0 86737.21100 167606.4500 88281.06400    0 147334.2600 155479.3000 152621.7700 156686.6600 157736.7400 70748.91300 171778.3000 72504.3280    0  10547    0 2000028
 12188.007031  82188 171388  37754    0  0  0 88003.75400 169486.2000 88061.96800    0 149649.2900 156805.3600 152329.0500 157899.9100 159678.3600 47524.69500 173202.0900 72806.2070    0  10538    0 2000028
 12191.437732  82169 171473  37761    0  0  0 86979.43700 168060.6900 88800.06100    0 148963.9200 157103.4700 153642.1300 157033.5600 158884.6400 19781.80900 173148.9300 72733.7000    0  10536    0 2000028
 12194.972382  82126 171492  37663    0  0  0 88159.56600 167659.3500 89242.63200    0 149330.9700 158037.7200 153968.3900 157676.4500 160771.3500 56374.47000 172692.9000 72891.7730    0  10530    0 2000028
 12198.573903  81847 171057  37718    0  0  0 86083.15000 169372.3500 88755.85100    0 148582.4000 156707.1700 152897.1200 157512.6600 158198.0200 11877.58500 173697.9500 72017.1640    0  10499    0 2000029
 12202.026845  82073 171672  37738    0  0  0 87865.70100 168814.3000 89027.81500    0 148740.1200 157595.4300 154672.5200 157827.2200 160564.1900 17464.96500 173119.1000 73147.7900    0  10522    0 2000029
 12205.619617  82032 171741  37624    0  0  0 88087.25000 168966.2800 89090.92800    0 150198.3700 158279.5500 154053.3400 158673.7900 159877.6200 53123.02900 174153.0500 72891.4740    0  10517    0 2000028
 12209.229139  81991 171776  37661    0  0  0 88450.29800 169186.6100 89910.88300    0 150794.9400 158842.7000 154361.0800 159412.6400 161358.4500 83633.78300 174445.5300 73664.0060    0  10532    0 2000028
 12212.779125  81942 171832  37666    0  0  0 88689.40800 170121.5700 89561.98200    0 150386.8800 158720.7700 155161.2700 159177.6500 161080.5700 74089.16100 174382.1900 74115.8910    0  10547    0 2000028
 12216.482298  81908 171886  37601    0  0  0 87883.65500 169524.9500 89404.00200    0 150153.6000 158634.2700 153959.0600 158968.2300 159775.2200 76801.37000 173835.7500 73876.8160    0  10537    0 2000027
 12220.082078  81825 171878  37550    0  0  0 86697.88900 170377.8600 89049.99600    0 149849.6800 157568.4900 154028.6500 158728.4700 158861.0700 71583.82300 173925.4400 71888.0990    0  10525    0 2000028
 12223.732809  81786 171962  37475    0  0  0 89629.25500 169749.1600 88972.44500    0 151538.1700 157922.0500 153447.4600 159278.0700 160415.6400 73356.04300 175435.1400 74159.3760    0  10520    0 2000028
 12227.400399  81741 171966  37385    0  0  0 87869.69400 169853.8500 89828.34200    0 149852.4200 157791.6300 154376.8700 158693.8000 161067.6300 26445.76000 174698.3900 73673.7340    0  10517    0 2000029
 12231.071850  81667 171994  37353    0  0  0 87692.68000 170498.9500 89896.27600    0 150924.8000 158913.0700 154714.7100 159705.9600 160836.7300 30850.72000 174364.9400 72593.0700    0  10505    0 2000028
 12234.825387  81529 171864  37354    0  0  0 86060.91700 168928.0200 89348.72900    0 149079.7000 157829.0000 153678.6900 158430.5900 157023.6200 22933.79900 172624.6800 71353.0420    0  10488    0 2000028
 12238.517665  81542 172008  37212    0  0  0 88490.51900 169218.1900 89642.32700    0 150819.3100 158511.0600 154083.3800 158513.7400 161520.6000 44017.99400 174391.9800 73768.9330    0  10487    0 2000029
 12242.390053  81280 171617  37243    0  0  0 88143.69900 168588.4300 89221.37700    0 150042.6500 158020.3900 154905.4100 158226.6100 161191.2900 21151.47400 174083.6100 73376.7290    0  10454    0 2000028
 12246.072265  81288 171782  37149    0  0  0 87340.60200 168804.7100 89033.88300    0 149839.2500 157376.7600 153513.2300 158815.1900 158559.9500 66748.18400 174438.3700 71762.9960    0  10433    0 2000028
 12249.931530  81010 171341  36448    0  0  0 85971.85400 168862.8800 89586.54200    0 148939.4100 156823.9500 153035.3500 157675.3200 157685.5800 42939.60500 173151.2400 70829.3660    0  10382    0 2000028
 12253.731139  79487 168149  35516    0  0  0 87748.72700 166143.4600 87863.91700    0 146881.1400 154741.3400 150377.5400 155728.3100 156908.0800 33530.46900 168963.0700 72421.9530    0  10200    0 2000028
 12257.523322  79172 167618  37127    0  0  0 85251.16000 165451.4100 87026.05200    0 146370.4700 153443.6300 150433.2300 154831.9200 154984.3900 54306.45200 169000.8200 71107.5600    0  10166    0 2000029
 12261.447194  81616 173116  37310    0  0  0 86868.70100 170237.2700 90141.58700    0 150455.3800 157992.0800 155564.4500 159500.8800 159427.3900 24801.89500 175813.9400 71965.5190    0  10453    0 2000028
 12265.267150  81580 173240  37272    0  0  0 88013.87900 170714.1900 89412.92000    0 150127.2400 159059.3000 154426.8500 159414.3000 158869.9600 40887.11100 174563.6300 72260.1860    0  10444    0 2000028
 12269.238661  81528 173294  37349    0  0  0 89550.61400 170171.9400 90460.46800    0 151656.6800 159523.9400 155572.0500 160108.7400 161825.3600 14094.78300 175288.6700 73916.3160    0  10439    0 2000028
 12273.155379  81454 173295  37316    0  0  0 88895.69700 170100.7800 89535.11100    0 149806.2100 157967.6600 155079.8900 159348.1300 160927.9000 17331.76600 173619.8600 73808.4090    0  10433    0 2000028
 12277.140274  81400 173348  37276    0  0  0 87603.21300 169343.8800 89870.33400    0 150785.3900 158386.3500 155474.8800 159601.9700 160204.0600 19579.24800 175136.0700 73397.1330    0  10466    0 2000028
 12281.126151  81323 173335  37205    0  0  0 88381.31200 170303.8100 90097.95800    0 151722.4200 159838.5800 154620.9600 160289.8400 160523.4700 35875.86200 175849.4700 73580.5900    0  10455    0 2000028
 12285.185311  80990 172767  37220    0  0  0 88881.74500 170325.5300 89743.25300    0 149753.2000 157850.0200 153442.0300 158316.8000 160576.8300 28048.95800 174333.1300 73418.3160    0  10416    0 2000028
 12289.155107  81263 173525  37220    0  0  0 87845.08100 169917.9300 90132.40700    0 151135.8800 158033.9900 155269.2000 160417.3100 160250.8700 41212.67200 175572.7700 72729.8460    0  10447    0 2000028
 12293.198257  81219 173615  37311    0  0  0 89453.70100 171140.4100 90137.37500    0 151586.1900 159492.3800 155490.8500 160380.9800 161668.0600 17489.92900 175588.6200 74492.4220    0  10443    0 2000028
 12297.318198  81173 173678  37256    0  0  0 88619.07700 170473.5800 89513.96900    0 151827.4900 159104.2900 155020.9100 160897.9400 162052.3000 19536.63200 174799.9500 74526.1190    0  10437    0 2000029
 12301.282764  81071 173631  37105    0  0  0 88156.91100 169986.6400 90208.20400    0 151311.6100 158749.9700 154882.8800 159920.0100 160752.8400 34179.05000 174625.6300 73394.1040    0  10423    0 2000028
 12305.535154  80988 173630  37127    0  0  0 89375.63300 170948.4600 89761.64000    0 150618.2000 159294.5500 154963.5500 159682.8600 162081.1700 32881.77400 175787.6100 74388.9970    0  10409    0 2000028
 12309.519940  80980 173744  37118    0  0  0 89399.57700 170951.2500 90588.38400    0 152117.5600 158241.5800 155022.9200 160181.7400 161058.9500 59556.91000 174974.1800 74317.6300    0  10405    0 2000029
 12313.674090  80910 173789  37018    0  0  0 88859.59000 170548.7500 89912.51700    0 151426.4400 159106.6500 155256.3300 160347.0100 161712.1600 13732.16800 175556.1100 73917.8820    0  10378    0 2000029
 12317.755084  80870 173875  37029    0  0  0 88859.85400 170623.8500 89207.09100    0 152299.3800 159323.3000 154301.5700 159778.4800 159871.2100 29763.43100 174899.1800 72991.2370    0  10350    0 2000027
 12321.954547  80788 173867  36973    0  0  0 88922.71100 170731.6200 90536.04200    0 151501.1000 159200.0100 154909.9900 159526.5400 161158.6800 37232.31000 175593.5900 74653.2870    0  10339    0 2000028
 12326.138714  80744 173926  36891    0  0  0 89524.87700 171640.7900 89895.51800    0 152878.2800 159572.1300 156245.4700 161003.9700 162868.6600 79867.97900 175174.1300 74986.7650    0  10330    0 2000028
 12330.267818  80702 173994  36890    0  0  0 88773.95100 171124.6800 90708.71300    0 151232.6700 159443.6500 155292.7900 160131.7100 160910.6200 84979.17500 175822.2300 73578.1390    0  10323    0 2000028
 12334.523974  80648 174071  36959    0  0  0 88427.42100 171344.4800 90089.95200    0 151490.4200 160487.1300 156307.3400 160588.2000 161793.1000 83659.79700 176473.1300 72526.5530    0  10315    0 2000028
 12338.695245  80601 174127  36885    0  0  0 90273.82600 170658.2900 90741.91400    0 152715.4100 160650.6200 156268.7400 161221.6800 163293.4900 84553.05400 176275.0900 74894.7060    0  10307    0 2000028
 12342.983842  80558 174195  36881    0  0  0 90344.20200 171366.7900 90380.00300    0 152249.5100 160609.0000 155139.3900 161576.8500 163983.0900 84328.46200 177252.2700 75427.0160    0  10301    0 2000028
 12347.243919  80511 174252  36910    0  0  0 88519.50800 170705.5800 90782.09800    0 151431.8800 159437.3900 155537.9200 159462.4500 161224.3600 77597.13500 175975.9400 73051.1650    0  10293    0 2000028
 12351.438864  80496 174387  36974    0  0  0 89323.98400 172939.2000 90877.21300    0 152722.0200 160878.1100 157412.8700 161490.3500 163157.6000 81619.41600 177525.7300 74356.3880    0  10288    0 2000028
 12355.789642  80447 174465  36918    0  0  0 89110.11800 171697.6600 90686.98000    0 151171.2600 159473.1100 155627.5900 159907.2700 162060.5100 54344.87600 175302.5700 73433.6590    0  10282    0 2000028
 12359.982155  80404 174536  36932    0  0  0 90078.53900 172272.0700 90666.31600    0 153378.1600 161121.3000 156655.7600 160592.4800 162994.4200 73765.71600 176869.9300 74873.4190    0  10280    0 2000029
 12364.290755  80344 174577  36916    0  0  0 89658.58500 172546.8000 90734.47300    0 151981.2000 161335.3700 156776.2900 161132.7200 162001.3200 63896.12600 177197.8200 74459.0510    0  10311    0 2000028
 12368.632388  80301 174665  36863    0  0  0 87741.61600 172796.8900 91053.45700    0 151619.7200 160212.0600 156729.7400 160759.0300 161592.5200 44342.96900 178005.9900 73344.7300    0  10306    0 2000029
 12372.900421  80248 174716  36898    0  0  0 89610.02100 172722.9700 91594.11800    0 152393.6000 161912.1800 157084.0800 161278.4800 163127.4800 28383.96700 178253.3700 74310.4290    0  10299    0 2000028
 12377.331599  80196 174777  36850    0  0  0 90187.50000 171509.2700 91452.87300    0 152620.3400 160869.7500 155788.9800 161694.9300 164092.4000 21777.55100 176410.4700 74589.0710    0  10292    0 2000028
 12381.612397  79989 174489  36850    0  0  0 89214.97700 172107.6700 90484.10700    0 152556.3200 160654.8700 155767.9700 160832.7100 163122.5700 27299.32300 176357.7100 73920.3410    0  10267    0 2000029
 12386.016485  80044 174797  36763    0  0  0 88693.17600 172746.5700 91562.44400    0 152906.3100 161780.9300 157766.6900 161928.3000 163208.7500 62901.83200 177969.6000 73847.0430    0  10242    0 2000028
 12390.542457  79982 174854  36747    0  0  0 89819.29200 173474.3800 91141.78700    0 151781.2100 159638.9200 156357.3700 160496.5500 162220.1600 39483.37900 176810.9300 73839.1010    0  10236    0 2000029
 12394.963024  79903 174852  36692    0  0  0 89254.94600 172006.1400 90074.54500    0 152318.5600 160139.8900 155058.1100 160203.2900 163672.8700 44043.20500 176300.7300 74329.3280    0  10221    0 2000028
 12399.463809  79799 174813  36637    0  0  0 89366.13000 172684.2700 90729.59700    0 152933.5400 160564.1900 156101.7300 160343.6400 162889.3500 51380.95800 176317.8500 73696.5010    0  10208    0 2000029
 12404.014824  79739 174885  36588    0  0  0 87698.64700 172468.4500 91122.06100    0 152412.6400 159784.2700 156828.5800 162007.8400 161001.6700 38980.72600 177037.2300 73295.7440    0  10197    0 2000028
 12408.522272  79583 174729  36527    0  0  0 89935.74900 171679.8800 90172.48200    0 152764.0900 160191.0200 156920.4400 160740.9400 162441.8100 55048.66100 177101.8800 74066.3450    0  10179    0 2000028
 12413.039753  79665 175064  36536    0  0  0 90233.46400 172720.5600 90638.63300    0 152843.3100 161072.1900 157019.8600 161644.3700 163857.9900 53479.48100 178340.2000 74794.6200    0  10190    0 2000029
 12417.659649  79637 175212  36587    0  0  0 89757.22400 173055.0600 90863.65700    0 153305.1300 160912.5000 156847.4300 161937.5600 162597.6400 56613.23300 177382.1300 75054.4980    0  10184    0 2000028
 12422.271266  79596 175301  36502    0  0  0 89728.04100 171892.6200 91363.69200    0 153088.7300 161545.1100 157138.7900 162023.3200 162908.3800 53796.02800 177337.1900 74641.6770    0  10182    0 2000028