# XDI/1.0 GSE/1.0
# Scan-start_time: 2024-10-02T20:49:50
# Column.1: energy eV
# Column.2: I0_eh2
# Column.3: I1_eh2
# Column.4: IX_eh2
# Column.5: IR_eh2
# Column.6: c8
# Column.7: c9
# Column.8: fluo01
# Column.9: fluo02
# Column.10: fluo03
# Column.11: fluo04
# Column.12: fluo05
# Column.13: fluo06
# Column.14: fluo07
# Column.15: fluo08
# Column.16: fluo09
# Column.17: fluo10
# Column.18: fluo11
# Column.19: fluo12
# Column.20: fluo13
# Column.21: I0_eh1
# Column.22: I1_eh1
# Column.23: IX_eh1
# Mono.name: Si 111
# Mono.d_spacing: 3.134692
# Mono.notes: LNT cooled
# Beamline.name: BM08-LISA
# Facility.name: ESRF
# Facility.xray_source: Bending magnet
# ---------
# BraggEnergy I0_eh2 I1_eh2 IX_eh2 IR_eh2 c8 c9  fluo01  fluo02   fluo03 fluo04  fluo05   fluo06  fluo07  fluo08  fluo09   fluo10  fluo11  fluo12 fluo13 I0_eh1 I1_eh1 IX_eh1
  6969.756012 1119097 187089 407097    0  0  0 1866.6816 1630.5720 1190.60930    0 1825.9432 1531.02810 2215.4016 1406.4801 2611.5921 2915.481900 2103.4621 2774.1653    0 603779  10863 5000069
  6979.577694 1120606 189356 412126    0  0  0 1926.8889 1690.5906 1175.58920    0 1706.8533 1455.31240 2126.4946 1370.1838 2685.8048 2769.341400 1961.5856 2901.6418    0 604155  11311 5000068
  6989.428309 1122068 191742 417646    0  0  0 1654.1600 1604.1640 1186.50160    0 1562.9897 1415.10790 2100.6263 1305.2412 2415.1850 2681.519200 1870.9111 2693.1293    0 604538  11520 5000069
  6999.421004 1123586 194200 422910    0  0  0 1763.1794 1576.6626 1010.27990    0 1567.2638 1325.69710 2034.8214 1211.5991 2586.1049 2712.795000 1801.6038 2813.8409    0 604902  10561 5000069
  7009.423277 1125144 196727 428278    0  0  0 1564.4671 1483.9779 1090.29640    0 1483.1610 1245.97530 2060.3111 1228.5314 2219.0294 2807.926800 1689.1981 2587.6532    0 605425  10754 5000069
  7019.437687 1126610 199394 434057    0  0  0 1654.2958 1512.1455 978.10570    0 1458.2803 1183.08430 2013.7053 1238.7633 2378.2657 3191.865200 1762.9503 2696.2177    0 605721  10882 5000069
  7029.365865 1127062 200237 435072    0  0  0 1439.1481 1442.9020 906.86066    0 1370.8283 1201.44230 1930.2653 1257.6188 2123.9805 2520.218100 1650.4701 2563.3658    0 603813  11274 5000069
  7039.334398 1129629 204496 444860    0  0  0 1549.5181 1383.1605 887.40727    0 1424.4123 1136.22250 2012.7476 1143.5018 2136.8133 4569.000000 1655.9836 2531.6795    0 606689  11313 5000068
  7049.282998 1131028 207128 450246    0  0  0 1450.8176 1390.7241 783.80935    0 1282.5507 1109.40420 1925.0268 1137.0972 2113.4451 5395.492000 1620.3187 2527.4593    0 606822  11436 5000069
  7059.193944 1132420 210056 455902    0  0  0 1432.8529 1445.7341 836.58718    0 1292.5883 1013.22690 1954.1750 1139.9846 2044.6763 3260.138600 1571.9879 2435.7793    0 607067  11406 5000069
  7069.140340 1133802 212537 461527    0  0  0 1344.4548 1396.7833 791.32418    0 1242.5853 1032.66830 1883.2632 1152.4732 1983.4766 3513.745400 1540.6635 2295.0069    0 607416  11449 5000069
  7079.009304 1135181 215293 466885    0  0  0 1295.4667 1341.3454 798.35068    0 1254.3491 1100.89240 1930.6855 1139.3607 1920.6773 4976.143900 1486.0849 2299.6373    0 607775  11656 5000069
  7088.989019 1136521 218138 472125    0  0  0 1281.3988 1365.0343 773.10902    0 1220.8603 1031.72410 1808.0217 1143.5455 1851.9292 3533.289900 1500.9224 2206.4731    0 608005  11411 5000068
  7099.050431 1137920 220620 474554    0  0  0 1317.8215 1337.9820 741.78571    0 1230.3059 983.50076 2001.5410 1114.2287 1847.1216 2329.233000 1529.1530 2181.8976    0 608207  11854 5000068
  7104.056746 1138488 222187 474914    0  0  0 1220.0113 1406.9396 785.01349    0 1271.7471 1038.34610 1948.7637 1093.6492 1786.8752 3087.717400 1533.3847 2112.9473    0 608195  11879 5000068
  7104.331614 1138515 222250 474866    0  0  0 1290.3778 1397.9367 761.89217    0 1201.0100 1065.18480 1934.7035 1129.4379 1811.8679 4694.093200 1439.8835 2197.7513    0 608163  12042 5000069
  7104.648222 1138522 222410 474852    0  0  0 1252.9842 1378.8235 743.42819    0 1237.4464 1117.93670 1866.1853 1162.5086 1811.1245 2697.778500 1439.1108 2108.5525    0 608138  12018 5000068
  7104.922603 1138536 222427 474547    0  0  0 1139.2228 1294.0393 768.48633    0 1197.8437 1032.93570 1911.6102 1110.5525 1724.8675 2871.702700 1485.1552 2065.6817    0 608107  11289 5000068
  7105.200215 1138568 222439 474017    0  0  0 1269.0236 1335.1778 717.76037    0 1198.7539 1071.13190 2027.0579 1109.9249 1863.2777 2133.851200 1589.9771 2259.2978    0 608055  10911 5000069
  7105.516903 1138616 222464 473625    0  0  0 1144.6739 1388.5466 722.73303    0 1214.9533 1043.76660 2003.3138 1116.5000 1753.7199 2466.500000 1497.7829 2130.2619    0 608003  12069 5000068
  7105.779049 1138606 222487 473211    0  0  0 1278.8820 1328.7512 773.94534    0 1166.4678 1086.14020 1933.7931 1183.9040 1836.9965 2345.439400 1483.7091 2302.6034    0 607920  11937 5000068
  7106.084555 1138615 222583 472937    0  0  0 1117.7303 1386.5275 742.89974    0 1191.2112 1032.32710 1919.7938 1167.9500 1711.7703 2383.422700 1458.4937 2065.5619    0 607879  11802 5000069
  7106.404535 1138606 222647 472373    0  0  0 1271.7970 1354.4723 727.05216    0 1189.2093 1001.09870 1933.7974 1206.6385 1872.5460 1981.372300 1528.0230 2219.9133    0 607845  10747 5000068
  7106.668890 1138641 222708 471916    0  0  0 1288.9491 1361.5333 758.44110    0 1167.2520 1024.36800 1905.5840 1103.9705 1746.8391 2398.763800 1522.1811 2161.6959    0 607782  10639 5000068
  7106.980897 1138657 222736 471076    0  0  0 1201.5447 1429.9330 701.72869    0 1227.1467 997.36220 1893.2029 1108.6826 1779.0356 2188.812700 1499.4059 2109.2222    0 607703  10507 5000068
  7107.276876 1138678 222775 470236    0  0  0 1315.6403 1422.5773 788.05168    0 1163.0806 1051.50340 1920.7421 1138.4271 1909.5512 1437.551000 1504.5239 2229.0189    0 607658  10362 5000069
  7107.552004 1138700 222772 468982    0  0  0 1151.1792 1371.2290 745.25161    0 1179.5987 1051.47900 1915.3914 1164.3613 1708.1853 1385.934000 1534.5527 2065.8943    0 607595  11302 5000068
  7107.862486 1138660 223024 468524    0  0  0 1330.8662 1349.2281 786.03546    0 1198.1041 1075.27460 1842.2297 1131.8137 1882.6844 1429.187300 1471.9585 2083.3536    0 607468  11792 5000069
  7108.149975 1138643 223079 467073    0  0  0 1124.4355 1381.9652 766.94531    0 1194.2551 962.74492 1943.6251 1167.4099 1775.6398 2710.352900 1483.4533 1990.5297    0 607374  11598 5000069
  7108.425709 1138638 223150 465076    0  0  0 1327.9678 1390.7010 780.94898    0 1208.6687 1078.84340 1925.0114 1170.6643 1823.0760 2665.576700 1552.0415 2206.0009    0 607289  11425 5000068
  7108.721813 1138626 223090 462217    0  0  0 1148.7492 1398.4625 739.82090    0 1228.5125 1087.39310 1958.7755 1223.9206 1733.5332 1812.284600 1632.2089 2085.2882    0 607176  11729 5000068
  7109.032402 1138618 223101 458446    0  0  0 1330.5947 1438.5118 745.89481    0 1269.3806 1031.47790 1947.1402 1237.7434 1840.5048 1833.791200 1477.6817 2135.3900    0 607046  11281 5000069
  7109.296425 1138618 222894 452853    0  0  0 1255.5389 1487.6671 727.76913    0 1226.1973 1092.06250 1900.2340 1189.2736 1882.0094 2859.266700 1551.0917 2057.4136    0 606836  11746 5000068
  7109.619921 1138599 222876 446034    0  0  0 1237.4876 1409.7889 781.51421    0 1198.2443 990.49605 1928.7438 1202.3881 1775.5882 3015.955800 1617.6341 2144.3670    0 606737  11658 5000069
  7109.924699 1138544 222976 437209    0  0  0 1235.3477 1376.0656 767.91462    0 1301.5698 1058.43190 1977.7394 1130.8969 1829.6852 2916.718100 1588.9803 2152.5158    0 606498  11009 5000068
  7110.194148 1138476 223069 426797    0  0  0 1157.7621 1406.0373 728.28121    0 1208.6532 1051.17450 1943.4459 1150.2120 1777.7832 1705.424500 1546.4115 2023.2356    0 606177  10972 5000069
  7110.520408 1138346 222695 413550    0  0  0 1349.6825 1411.0658 819.71704    0 1264.2480 1090.79600 1963.7858 1211.3251 1909.2182 1702.819700 1656.2934 2259.1363    0 605757  11146 5000069
  7110.796869 1138194 221798 399587    0  0  0 1108.3255 1452.3530 755.41694    0 1265.2487 1101.19180 2024.1105 1246.2908 1823.6407 3365.832800 1581.5782 2098.6554    0 605277  9935 5000069
  7111.079783 1137968 221658 385292    0  0  0 1246.6602 1446.8734 742.86486    0 1320.1605 1084.61420 1978.5504 1274.0618 1829.0996 4168.773000 1594.4268 2199.3166    0 604669  10479 5000069
  7111.382548 1137773 221576 372822    0  0  0 1237.3911 1484.6452 791.63547    0 1310.2114 1140.10960 1976.3765 1294.2278 1910.4763 2782.628600 1751.6073 2112.9161    0 604071  10891 5000069
  7111.674086 1137484 221726 361781    0  0  0 1227.6078 1467.6061 829.27738    0 1337.4520 1174.70420 2022.6618 1300.0277 1822.8734 3183.425600 1677.3050 2145.0571    0 603340  11404 5000068
  7111.939921 1137259 221631 352420    0  0  0 1348.8485 1518.3594 811.15712    0 1378.0384 1232.00520 2058.9025 1412.8056 1971.1280 2752.418300 1772.2957 2140.4757    0 602645  11656 5000068
  7112.264204 1137031 221496 343853    0  0  0 1315.5159 1527.2133 854.92912    0 1357.0230 1197.66490 2055.5729 1355.2290 2029.9903 1898.040100 1701.2324 2212.9852    0 601914  11337 5000069
  7112.557961 1136790 221400 336566    0  0  0 1345.8242 1579.7305 856.79111    0 1448.0901 1265.73470 2068.4182 1420.0924 1990.2495 2592.683100 1776.6161 2111.2079    0 601184  10728 5000068
  7112.834051 1136590 221329 330561    0  0  0 1177.3602 1583.7050 846.81695    0 1422.9543 1167.34850 1992.2449 1428.2655 1918.1606 1595.568200 1908.9617 2082.0143    0 600519  10927 5000068
  7113.164316 1136401 221229 324836    0  0  0 1447.3846 1584.7382 863.48243    0 1477.3859 1248.15980 2027.4263 1462.3683 2005.2475 2614.549000 1835.8117 2200.9166    0 599922  10992 5000069
  7113.439383 1136235 221146 319961    0  0  0 1449.2896 1721.7415 861.43837    0 1431.4568 1302.36430 2105.0200 1533.6753 2144.1070 2144.664500 1894.2294 2207.7821    0 599414  11274 5000068
  7113.736995 1136100 221124 315520    0  0  0 1472.8027 1660.9175 831.23859    0 1462.5898 1298.65520 2136.5660 1504.5943 2088.5769 2434.090900 1912.2762 2281.4299    0 599002  11054 5000068
  7114.045359 1136010 221123 311989    0  0  0 1338.0395 1633.6693 887.25226    0 1547.8274 1329.65410 2177.3598 1516.1649 2069.3352 1916.455100 1904.6783 2139.5787    0 598664  11118 5000069
  7114.327470 1135936 221166 308987    0  0  0 1424.0424 1599.9167 937.51049    0 1581.5280 1345.10160 2131.9031 1507.1255 2052.4982 3236.284400 1926.6071 2116.9905    0 598387  10800 5000068
  7114.607458 1135785 221452 307328    0  0  0 1479.6528 1683.0051 897.13628    0 1551.3307 1374.73460 2203.6961 1523.4152 2261.2403 2214.704800 1914.8293 2174.5516    0 598109  10547 5000069
  7114.929848 1135725 221486 305431    0  0  0 1341.5676 1706.0774 898.81783    0 1506.0018 1427.26490 2101.2210 1542.3956 2100.7918 1830.334400 1961.5057 2239.7486    0 597914  10829 5000068
  7115.195401 1135667 221520 303848    0  0  0 1414.2434 1772.8539 904.29809    0 1634.6367 1453.11690 2155.1179 1540.2146 2222.9895 2099.532500 1967.6007 2260.1715    0 597736  10368 5000068
  7115.497458 1135624 221550 302280    0  0  0 1393.1485 1683.6433 872.52581    0 1583.0079 1397.60120 2095.7627 1549.5342 2121.3473 2070.156500 1999.9130 2102.2009    0 597570  10030 5000069
  7115.802762 1135583 221472 300459    0  0  0 1475.1335 1820.3601 942.07440    0 1571.0301 1370.67610 2204.0892 1612.0414 2258.8795 1915.558100 2129.8006 2143.2191    0 597375  10090 5000068
  7116.084481 1135547 221463 298169    0  0  0 1324.9375 1637.4334 907.08197    0 1514.2195 1456.19600 2152.8193 1637.7686 2142.1182 2131.061200 1896.7965 2109.2528    0 597140  8714 5000069
  7116.394667 1135413 221536 295326    0  0  0 1454.6204 1648.9627 875.54847    0 1567.1762 1451.00140 2136.2128 1601.0427 2208.0212 897.735510 1981.0623 2179.5813    0 596831  8519 5000068
  7116.698441 1135341 221510 291535    0  0  0 1416.2686 1781.5986 897.15938    0 1511.9991 1436.79660 2214.0356 1614.1387 2069.1616 681.909090 1917.1958 2235.5497    0 596558  8980 5000069
  7116.981844 1135242 221476 286563    0  0  0 1320.1445 1843.7965 908.65979    0 1589.5720 1355.00720 2158.2165 1652.5128 2058.1382 1600.447600 1999.8127 2074.7864    0 596234  9065 5000068
  7117.276007 1135153 221439 280990    0  0  0 1414.6406 1755.5132 884.50993    0 1546.0469 1397.02610 2170.2207 1551.0295 2206.2358 2427.877100 2016.5340 2059.4286    0 595918  8916 5000069
  7117.585765 1135066 221412 274631    0  0  0 1352.1162 1706.8949 911.97943    0 1624.8600 1394.98690 2221.0600 1637.2388 2110.8161 1726.264500 2027.4075 1991.4643    0 595580  9471 5000069
  7117.846692 1134960 221408 268126    0  0  0 1518.3593 1708.7465 906.71701    0 1642.4811 1470.79780 2167.0870 1579.6506 2206.7341 1997.192700 1996.9509 2191.8141    0 595242  9537 5000068
  7118.157038 1134871 221394 261045    0  0  0 1299.9773 1728.1463 953.64773    0 1550.6883 1414.04520 2141.7941 1608.6287 2090.5598 2959.797500 1916.2191 2009.4140    0 594895  8547 5000068
  7118.447543 1134768 221313 254119    0  0  0 1500.1107 1816.8143 899.73077    0 1574.9559 1476.59090 2286.7309 1646.2418 2176.8007 2411.523500 2030.5955 2281.2569    0 594567  9063 5000068
  7118.726259 1134666 221347 246977    0  0  0 1373.9929 1806.8037 948.40229    0 1611.8697 1516.99460 2176.4933 1637.3341 2238.0802 2248.525000 2006.9181 2216.9858    0 594235  10080 5000068
  7119.027017 1134568 221362 240042    0  0  0 1350.6416 1775.4854 915.41373    0 1568.9689 1476.75490 2189.1173 1624.2293 2073.4477 439.509430 1977.3601 2150.4989    0 593916  11154 5000068
  7119.335322 1134457 221325 232855    0  0  0 1519.6418 1793.6673 939.07818    0 1633.9921 1518.87030 2229.2418 1658.2239 2261.1806 1317.737900 2094.7416 2134.3124    0 593595  12147 5000068
  7119.603366 1134417 221148 225938    0  0  0 1463.0603 1790.4983 924.97918    0 1655.9768 1437.32950 2308.4194 1693.5722 2219.3877 1044.242400 2010.6912 2115.9000    0 593301  11915 5000069
  7119.927840 1134252 221313 219374    0  0  0 1476.1072 1885.7803 970.77572    0 1653.2642 1576.78410 2385.2240 1708.1195 2351.5998 1046.273000 2031.9319 2239.9487    0 592898  10930 5000069
  7120.220645 1134154 221299 213149    0  0  0 1466.0402 1927.3907 989.25716    0 1648.8782 1504.48820 2315.4244 1765.8492 2373.5345 1073.500000 2123.9835 2017.9888    0 592573  10919 5000068
  7120.505953 1134055 221287 207118    0  0  0 1572.2586 1896.3918 965.61794    0 1619.6271 1554.80590 2301.6474 1724.4941 2367.6670 1658.416400 2111.1243 2133.7094    0 592221  10048 5000068
  7120.812779 1133954 221310 201962    0  0  0 1581.0117 1965.6650 994.77979    0 1661.0580 1551.37600 2271.9071 1805.6250 2326.3184 1651.083900 2096.7209 2058.3765    0 591885  9739 5000068
  7121.111034 1133848 221255 196826    0  0  0 1508.7123 1960.9201 1025.56390    0 1744.9796 1643.68490 2287.4193 1850.5428 2321.5998 1835.901100 2187.4529 2179.7424    0 591522  10021 5000069
  7121.378680 1133737 221154 192477    0  0  0 1518.7074 1965.1132 1044.85900    0 1806.8332 1666.11560 2437.3023 1857.2870 2273.3945 1561.483600 2195.3978 2226.8155    0 591170  10386 5000068
  7121.704397 1133640 220976 188218    0  0  0 1460.8121 2041.4703 998.06357    0 1747.2319 1681.85520 2384.4791 1833.7922 2428.7083 1291.593800 2223.1218 2182.3390    0 590741  9638 5000068
  7121.981228 1133510 220897 184684    0  0  0 1559.9604 2052.3595 1052.46660    0 1782.2651 1710.17400 2405.9947 1883.8626 2505.3547 1744.898000 2242.8775 2172.1464    0 590298  10323 5000069
  7122.270983 1133388 220880 181430    0  0  0 1465.4455 2050.9766 1114.52600    0 1873.6198 1666.87150 2438.9702 1931.0918 2428.4242 1958.892500 2359.7111 2078.2628    0 589876  10655 5000069
  7122.582807 1133247 220805 178391    0  0  0 1588.3772 1993.7373 1131.02940    0 1882.7433 1712.74870 2414.7176 1909.6874 2538.6400 1851.654700 2413.9703 2145.5198    0 589469  10746 5000068
  7122.879066 1133055 220758 175634    0  0  0 1495.0184 2150.7170 1148.69060    0 1875.0368 1828.68370 2473.0112 2012.8870 2473.0579 1591.022700 2445.6920 2152.0725    0 589003  9422 5000069
  7123.161369 1132898 220645 173023    0  0  0 1683.4880 2228.6227 1109.88940    0 1915.7397 1850.44420 2457.3556 2121.6722 2507.1081 1417.035000 2397.5301 2179.6513    0 588539  8776 5000069
  7123.499088 1132797 220308 170222    0  0  0 1722.9001 2179.3164 1161.70730    0 1990.2970 1873.39240 2601.5552 2182.1868 2724.9366 1739.010200 2552.8972 2303.8195    0 588081  8709 5000068
  7123.774988 1132618 220194 167990    0  0  0 1660.8868 2299.1082 1199.33990    0 1992.7858 1973.54720 2653.4665 2254.6512 2769.5235 1458.214300 2708.7375 2165.0554    0 587571  8865 5000069
  7124.081033 1132447 220067 165798    0  0  0 1790.2340 2398.1603 1261.72640    0 2092.9597 2026.22060 2737.9247 2257.4244 2757.4401 1899.039700 2692.9688 2238.6706    0 587021  10199 5000069
  7124.389256 1132308 219876 163705    0  0  0 1755.8239 2367.3349 1268.80940    0 2224.8264 2111.52480 2668.3400 2303.4092 2837.8291 1667.607400 2817.4127 2153.2716    0 586574  9625 5000068
  7124.673298 1132128 219622 161579    0  0  0 1939.6441 2506.0582 1356.29630    0 2215.0102 2248.75200 2756.5560 2472.9186 2991.7311 2494.802800 2908.4460 2326.4588    0 586001  9011 5000068
  7124.962743 1131940 219467 159659    0  0  0 1894.6429 2544.8851 1319.01140    0 2283.6575 2329.63670 2843.0615 2468.2021 3080.1492 992.065840 3020.3070 2169.0667    0 585410  9404 5000068
  7125.286112 1131716 219321 157722    0  0  0 2004.3391 2677.1745 1360.95410    0 2337.2657 2414.83860 2995.7631 2539.4562 3124.4504 1537.267900 3150.9136 2371.5370    0 584734  9616 5000069
  7125.551933 1131540 219219 155943    0  0  0 1980.6099 2754.7974 1421.36590    0 2478.2044 2370.97240 2966.0569 2716.8984 3152.5714 634.843370 3237.4446 2362.0664    0 584125  8885 5000068
  7125.868361 1131355 219093 153951    0  0  0 2038.0260 2814.4929 1440.38080    0 2475.3854 2536.57110 3101.4868 2732.7307 3347.9632 1303.166700 3323.3304 2234.6140    0 583446  9215 5000068
  7126.171901 1131185 218994 151944    0  0  0 2073.6277 2885.1795 1421.46610    0 2684.4574 2662.25220 3221.0405 2841.7036 3375.3662 1458.797800 3473.6438 2459.6120    0 582818  9550 5000068
  7126.461474 1130977 218975 149861    0  0  0 2120.3914 3029.9124 1486.80810    0 2720.8177 2734.45070 3275.7823 3007.7797 3396.9570 1764.412200 3519.4814 2350.3029    0 582155  9672 5000068
  7126.770450 1130783 218917 147847    0  0  0 2236.0980 3165.7583 1689.66960    0 2700.8547 2815.64430 3334.4326 3138.8658 3684.1940 339.428570 3671.3056 2315.2318    0 581565  9210 5000068
  7127.088068 1130588 218937 145571    0  0  0 2145.5689 3157.7785 1688.48600    0 2820.1175 3010.31790 3484.0896 3170.6442 3681.9388 428.215770 3798.5796 2356.2795    0 580990  8950 5000069
  7127.361028 1130450 218933 143374    0  0  0 2403.9238 3219.4077 1657.47090    0 3010.5186 3015.05870 3649.8855 3260.7134 3829.7716 465.434390 3881.4964 2511.4623    0 580547  8951 5000069
  7127.691085 1130357 218987 140969    0  0  0 2307.6950 3434.4180 1803.05550    0 2991.4415 3149.65160 3636.6413 3346.1965 3918.6549 320.253660 4057.2714 2499.2758    0 580185  9294 5000069
  7127.977555 1130302 218999 138683    0  0  0 2445.1568 3533.2188 1747.66160    0 3109.9089 3311.38520 3792.2446 3364.2041 4143.4097 1084.448300 4130.9869 2633.3172    0 579929  9622 5000069
  7128.266742 1131139 219839 136803    0  0  0 2533.8762 3697.4233 1883.64190    0 3250.1665 3323.81480 3952.8027 3526.2899 4211.9230 949.052130 4291.8632 2429.0096    0 581922  10222 5000068
  7128.579113 1131885 220625 135086    0  0  0 2644.3861 3785.0571 1980.66700    0 3446.1293 3488.69210 3856.3010 3848.0657 4331.3058 951.500000 4480.1727 2558.4335    0 583755  10631 5000069
  7128.877507 1131895 220656 132955    0  0  0 2716.3968 3941.3206 2018.95290    0 3400.9866 3534.51630 4057.7676 3819.4280 4525.1570 1301.553200 4692.2835 2651.0924    0 583678  9613 5000069
  7129.153303 1133967 223012 132532    0  0  0 2610.3195 3929.5394 2078.08830    0 3631.0176 3762.50520 4243.7220 4048.8118 4579.2178 540.325580 4788.7593 2590.1988    0 589018  9804 5000068
  7129.468987 1137614 226379 132827    0  0  0 2866.9581 4166.3350 2187.67480    0 3700.2226 3809.47220 4334.5060 4080.2518 4812.6359 380.428570 4912.4705 2835.3477    0 598396  10464 5000068
  7129.767460 1138200 226769 131633    0  0  0 2815.8939 4250.0508 2251.28210    0 3764.7608 4056.13870 4423.6046 4344.8139 4834.7130 686.630840 5132.7094 2665.9756    0 599868  11120 5000068
  7130.052487 1138344 226983 130807    0  0  0 2986.0853 4436.6260 2266.74480    0 3821.0974 4165.46490 4515.2272 4211.9543 5064.3502 404.092170 5166.0282 2862.2888    0 600232  10308 5000069
  7130.391426 1139057 227723 130840    0  0  0 2907.5352 4429.7497 2343.93820    0 3995.2271 4202.19230 4558.5005 4526.5511 5139.4033 319.988950 5259.1265 2771.0755    0 602086  10516 5000069
  7130.667883 1139611 228337 131306    0  0  0 3192.7058 4638.0218 2264.14390    0 4029.4608 4385.78680 4729.3664 4715.6199 5259.3026 614.268660 5582.6339 2863.7743    0 603479  10610 5000068
  7130.978317 1139460 228270 131918    0  0  0 3093.9043 4633.5196 2402.42330    0 3975.5355 4471.82650 4775.0408 4588.5744 5339.0804 948.614170 5683.2381 2835.8171    0 602993  10889 5000069
  7131.287701 1139282 228208 132916    0  0  0 3130.4949 4666.8298 2465.89970    0 4086.1854 4565.92320 4987.9862 4613.1721 5455.8068 115.481870 5727.9087 2835.5606    0 602429  11504 5000068
  7131.576090 1139114 228180 134405    0  0  0 3167.1193 4796.3986 2511.39710    0 4233.7458 4558.54010 4895.1400 4830.2961 5411.7803 272.617650 5590.7721 2956.6008    0 601867  10831 5000068
  7131.870433 1138955 228145 136077    0  0  0 3245.2847 4864.1303 2535.45980    0 4173.5262 4562.77710 4993.0415 4759.5364 5494.3976  90.994624 5594.2310 2916.9963    0 601369  10501 5000068
  7132.194456 1138816 228120 137951    0  0  0 3152.7395 4845.4607 2514.25470    0 4109.9157 4482.10340 5020.8795 4761.7472 5608.2833  0.000000 5851.2763 2979.2295    0 600897  9695 5000069
  7132.463509 1138702 228088 139929    0  0  0 3097.8957 4832.5170 2486.83970    0 4370.6842 4666.62060 4895.3127 4798.4147 5466.3083 540.775860 5703.6365 2836.4886    0 600490  9529 5000068
  7132.767635 1138610 228078 141971    0  0  0 3250.1212 4782.9938 2459.25830    0 4215.8346 4619.84650 5031.5235 4895.8162 5602.2656 2416.142900 5731.7540 2863.8765    0 600162  9465 5000068
  7133.091203 1138568 228019 144016    0  0  0 3200.0665 4713.2057 2609.59870    0 4156.9256 4641.17770 4803.0452 4896.3716 5482.7695 1810.561100 5777.7650 2904.1233    0 599873  9772 5000068
  7133.366260 1138502 228060 145958    0  0  0 3268.5814 4783.2828 2566.57500    0 4142.6355 4685.62890 4882.6287 4753.6364 5527.5998 493.213740 5859.2168 2891.9876    0 599660  9376 5000068
  7133.699594 1138494 228083 147795    0  0  0 3206.4895 4826.1389 2593.74090    0 4377.7446 4709.69680 4980.0370 4808.4242 5426.4310 937.964790 5825.9361 2947.1118    0 599508  9124 5000068
  7133.998975 1138516 228163 149420    0  0  0 3131.3523 4758.6377 2520.90680    0 4364.9363 4540.31860 4843.3155 4725.6460 5553.3253 1455.391800 5842.0556 2776.6848    0 599405  9031 5000068
  7134.292987 1138545 228204 150883    0  0  0 3265.5340 4905.7615 2466.53040    0 4187.2189 4625.46480 4863.7149 4780.2464 5530.7734 1752.255200 5671.1814 2889.0301    0 599358  9925 5000068
  7134.607527 1138577 228274 152104    0  0  0 3129.6859 4747.4450 2465.99850    0 4215.1264 4632.89200 4964.8718 4778.3512 5443.8125 2008.249200 5737.0051 2812.1845    0 599303  10844 5000068
  7134.909685 1138616 228339 153152    0  0  0 3178.6608 4721.1830 2481.09790    0 4049.6454 4503.99090 4761.3015 4773.8184 5623.2052 1924.074800 5741.1481 2966.6430    0 599292  10661 5000068
  7135.185967 1138681 228402 153988    0  0  0 3163.0604 4734.2928 2441.60580    0 4183.4614 4651.16900 4972.2383 4846.5640 5441.8722 2859.895900 5547.7740 2776.1074    0 599302  11065 5000068
  7135.499510 1138728 228523 154564    0  0  0 3199.8778 4597.9147 2552.26440    0 4247.0032 4634.34960 4780.9817 4731.2720 5505.2268 1692.893600 5767.7770 2932.5666    0 599329  11274 5000068
  7135.796349 1138802 228580 155028    0  0  0 3117.7718 4747.1846 2377.56570    0 4306.7888 4584.51070 4746.2708 4820.2913 5509.0527 1972.810500 5675.2770 2815.9348    0 599361  10460 5000068
  7136.077021 1138861 228644 155207    0  0  0 3167.7478 4718.5508 2425.53140    0 4125.1907 4535.44370 4859.8538 4856.1049 5298.2221 1466.797200 5772.8716 2930.9675    0 599397  10676 5000068
  7136.413318 1138937 228707 155277    0  0  0 3154.2998 4743.5607 2446.67270    0 4257.9144 4484.38380 4862.6251 4696.4865 5444.5540 2284.297200 5727.4383 2920.0415    0 599423  10841 5000069
  7136.694040 1138986 228854 155204    0  0  0 3014.0089 4689.8190 2411.74210    0 4203.0000 4613.73230 4870.0465 4831.6434 5382.6511 2157.482000 5724.4417 2854.5067    0 599481  10705 5000068
  7137.006101 1139046 228976 154958    0  0  0 3068.4695 4736.8605 2477.78810    0 4153.4633 4582.46430 4800.8934 4752.3055 5310.2370 748.053440 5661.2273 3065.5028    0 599542  11195 5000068
  7137.326830 1139142 229157 154663    0  0  0 3123.2919 4694.8445 2469.33890    0 4213.9266 4480.59310 4944.5871 4695.6329 5395.8587 1438.228800 5615.5527 2783.0275    0 599640  10884 5000068
  7137.603847 1139194 229228 154080    0  0  0 3104.2932 4603.9743 2472.90690    0 4158.6743 4394.84060 4840.0244 4690.0712 5437.3100 1760.105500 5700.7480 2864.6654    0 599700  9997 5000068
  7137.922472 1139273 229401 153570    0  0  0 3121.6286 4650.8111 2447.69810    0 4027.6113 4443.19910 4689.8972 4774.1119 5360.1439 1054.196100 5578.9790 2776.5595    0 599763  10441 5000069
  7138.231944 1139406 229193 152526    0  0  0 3083.7651 4747.4939 2372.99050    0 4245.4625 4388.67610 4806.5908 4753.8274 5362.0648 946.942530 5622.2587 2846.2165    0 599880  10665 5000068
  7138.521458 1139488 229201 151696    0  0  0 3055.9752 4680.4762 2467.98600    0 4148.3828 4411.05710 4705.6385 4598.0457 5358.1325 2388.347800 5535.1326 2898.1102    0 599932  10719 5000068
  7138.823962 1139536 229301 150988    0  0  0 3135.8562 4581.5770 2367.55630    0 4023.8909 4218.39740 4839.1453 4623.7194 5337.6509 761.220930 5555.0119 2810.1221    0 599994  10923 5000068
  7139.145401 1139592 229412 150347    0  0  0 3180.9719 4684.8000 2433.06420    0 4187.5191 4367.05460 4725.4504 4589.9430 5184.6096 1684.733300 5590.5489 2869.2739    0 600059  11012 5000068
  7139.419324 1139665 229501 149731    0  0  0 2953.9981 4592.4183 2362.42040    0 3975.3995 4344.69000 4706.2401 4647.3817 5262.4948 1739.010800 5520.5763 2768.5640    0 600104  10795 5000068
  7139.730552 1139721 229574 149155    0  0  0 3036.9049 4617.3907 2371.20940    0 4160.7993 4262.75700 4773.8652 4598.7123 5213.2826 3123.266500 5516.6411 2739.4786    0 600142  10421 5000069
  7140.048834 1139809 229636 148725    0  0  0 2850.8283 4528.0506 2280.69030    0 4024.3014 4153.07920 4708.5956 4393.6705 5109.4752 3483.251500 5465.4202 2770.9393    0 600207  10112 5000068
  7140.329855 1139902 229688 148305    0  0  0 3047.5904 4396.2390 2358.25650    0 4027.8329 4272.27540 4564.5747 4475.2863 5221.8352 3179.518600 5513.2694 2834.4099    0 600257  10220 5000069
  7140.672515 1139972 229803 148119    0  0  0 2986.1101 4465.9980 2360.14460    0 3997.4323 4210.47710 4556.2498 4501.3342 5002.0491 1873.087200 5348.6992 2767.6914    0 600329  10667 5000068
  7140.964397 1140037 229914 148037    0  0  0 2959.7323 4455.0131 2313.30510    0 3962.8013 4288.57100 4732.6914 4475.5658 5034.8653 2114.822300 5328.1950 2820.3720    0 600402  10856 5000069
  7141.250899 1140111 230020 148067    0  0  0 2807.6709 4360.7505 2229.44080    0 3973.8567 4272.72360 4543.3673 4373.1174 5040.7132 906.250800 5237.7278 2754.7030    0 600469  9548 5000068
  7141.588785 1140187 230169 148223    0  0  0 2926.2094 4397.9624 2313.09180    0 3850.6978 4024.07690 4553.3126 4283.2330 5040.3931 1759.447200 5274.9233 2667.6089    0 600557  9966 5000068
  7141.866688 1140270 230228 148408    0  0  0 2927.3838 4365.4098 2283.68240    0 3842.5007 3991.59320 4581.9393 4467.5677 4987.1293 2897.551300 5077.3996 2707.9227    0 600630  10619 5000068
  7142.166783 1140357 230367 148692    0  0  0 2854.4812 4254.6728 2202.56060    0 3927.0204 4112.76160 4345.4037 4354.5716 5024.4645 2149.000000 5244.1765 2627.5408    0 600702  11181 5000069
  7142.482046 1140425 230476 148991    0  0  0 2958.6636 4263.4105 2255.95360    0 3761.5661 3950.05150 4569.4275 4227.3063 4907.4023 2467.224900 5043.9883 2810.6457    0 600782  11407 5000069
  7142.757317 1140491 230642 149282    0  0  0 2855.5414 4214.5864 2196.14580    0 3770.8423 3983.58860 4519.0898 4138.9228 4772.2371 1782.224300 4961.0145 2669.6030    0 600880  11348 5000068
  7143.066145 1140585 230723 149619    0  0  0 2924.5498 4259.2143 2205.49520    0 3735.3179 4113.59010 4534.2457 4227.7830 4918.1116 3216.049400 5133.3727 2722.5710    0 600968  11033 5000068
  7143.384736 1140651 230844 149803    0  0  0 2734.2381 4113.6884 2227.39790    0 3745.1030 3871.60840 4326.0766 4253.8663 4778.5893 2156.538500 5069.9833 2603.0847    0 601058  11745 5000069
  7143.679555 1140684 231266 150298    0  0  0 2756.4652 4129.8794 2143.97790    0 3727.3438 4131.09310 4334.7018 4191.0221 4746.3252 4054.252000 4884.7268 2738.2082    0 601160  11570 5000068
  7143.987924 1140781 231450 150492    0  0  0 2716.5232 4070.4381 2083.79050    0 3654.9698 3918.56090 4352.0785 4034.2446 4638.1975 5051.442300 4964.5417 2627.5236    0 601277  11482 5000068
  7144.303355 1140861 231541 150427    0  0  0 2735.6925 4035.4232 2141.98470    0 3676.9940 3902.96390 4211.2683 4111.6614 4735.9459 4733.153800 4761.7279 2618.5796    0 601400  11255 5000069
  7144.597711 1140968 231632 150255    0  0  0 2718.0375 4129.8798 2152.51910    0 3802.4708 3955.58850 4144.4183 4068.8637 4553.6127 4707.940700 4945.0430 2604.1382    0 601532  10757 5000069
  7144.909951 1141067 231800 150114    0  0  0 2744.0933 4121.2352 2177.46190    0 3694.9143 3799.87120 4307.4899 4071.8612 4625.9769 3257.837800 4765.7487 2642.4348    0 601658  11216 5000069
  7145.209772 1141157 231871 149639    0  0  0 2872.2320 4058.2742 2068.42840    0 3740.2709 3781.27940 4296.3601 4066.7260 4550.7931 3293.829300 4887.4279 2756.4378    0 601792  11783 5000069
  7145.499335 1141258 232023 149190    0  0  0 2648.4587 4138.7812 2049.54250    0 3584.8808 3711.58380 4275.6023 4094.8079 4560.1489 3197.221200 4827.1944 2558.8665    0 601943  11610 5000069
  7145.809492 1141315 232191 148604    0  0  0 2696.7872 4019.5245 2081.69110    0 3503.8047 3856.42390 4294.5636 4049.9780 4636.9628 3227.754700 4703.3212 2703.9351    0 602038  11957 5000069
  7146.119135 1141436 232284 147888    0  0  0 2639.9577 4064.0454 2126.83130    0 3499.6721 3811.92870 4218.1269 3992.4400 4490.0554 4279.862100 4819.3671 2681.5586    0 602191  11392 5000068
  7146.394157 1141502 232416 147223    0  0  0 2712.9419 3995.8875 2091.76110    0 3566.9842 3706.51960 4345.6086 4032.7500 4556.0291 3106.103200 4647.6045 2653.6102    0 602330  10338 5000068
  7146.708185 1141603 232547 146450    0  0  0 2682.5021 3940.0669 2042.36550    0 3441.7831 3680.49020 4198.8104 3874.2374 4624.2010 2521.365200 4794.7319 2643.3842    0 602474  11023 5000068
  7147.016285 1141688 232728 145638    0  0  0 2627.2245 3989.3080 2109.78660    0 3575.0518 3831.76320 4181.1003 3868.8314 4457.8860 2212.986800 4749.6414 2626.0773    0 602620  11314 5000068
  7147.298418 1141804 232876 144891    0  0  0 2683.8411 3914.6431 2026.63360    0 3665.2094 3681.44490 4092.7788 4016.0811 4576.8493 2216.486800 4771.5017 2604.1186    0 602778  11919 5000069
  7147.639067 1141891 233017 143975    0  0  0 2538.3273 3993.7615 2096.74350    0 3461.2528 3666.85650 4224.8167 3935.7918 4460.2545 2136.789300 4746.6541 2519.1449    0 602901  10715 5000068
  7147.921794 1141984 233093 143181    0  0  0 2671.2484 3955.7185 2053.48630    0 3497.4405 3622.12210 4059.2157 4028.3488 4525.1976 1574.460600 4840.9441 2576.8212    0 603050  11109 5000069
  7148.209419 1142089 233180 142397    0  0  0 2581.5434 3948.3080 2133.09050    0 3475.4366 3629.23930 4187.3520 3860.6755 4395.0200 2757.678900 4714.3761 2586.7631    0 603179  11210 5000068
  7148.541490 1142201 233245 141690    0  0  0 2634.9149 3792.1639 1995.21560    0 3454.1274 3660.99770 4073.1027 3924.0734 4494.6822 1587.586300 4663.2029 2561.0990    0 603305  12223 5000068
  7148.812372 1142271 233302 141058    0  0  0 2588.5036 4001.6132 2004.39700    0 3541.2318 3642.52570 4046.7000 3964.2696 4344.4316 1811.247500 4628.3019 2551.3811    0 603392  12278 5000069
  7149.093569 1142311 233429 140569    0  0  0 2660.3666 3792.1101 1939.83540    0 3535.7006 3607.46820 4169.8855 3988.8885 4389.8674 2266.866000 4626.7129 2529.5703    0 603474  12752 5000068
  7149.421933 1142410 233493 140093    0  0  0 2621.6867 3818.2036 1925.73780    0 3401.6793 3600.69810 4144.4875 3931.0009 4630.7685 2474.607900 4554.9336 2509.6312    0 603582  11428 5000068
  7149.692343 1142470 233497 139622    0  0  0 2561.3524 3858.6076 2063.70550    0 3397.4794 3585.50000 4054.2857 3888.9381 4444.9084 4524.261900 4588.7028 2508.0605    0 603642  11061 5000069
  7149.980658 1142526 233591 139294    0  0  0 2705.5598 3948.9699 2022.35220    0 3406.7562 3640.20580 4171.0688 3755.3953 4299.4752 3046.446000 4458.8931 2641.5315    0 603691  11556 5000069
  7150.312901 1142574 233664 138943    0  0  0 2532.9102 3911.0975 1960.95710    0 3411.8174 3610.55710 3961.1098 3803.3977 4400.2821 4085.567400 4544.8820 2568.4141    0 603735  12551 5000068
  7150.587717 1142632 233737 138630    0  0  0 2606.0870 3782.8560 1913.53320    0 3429.7344 3597.93770 4039.7791 3781.6757 4374.6201 4481.671700 4592.5965 2590.4246    0 603778  12595 5000068
  7150.908092 1142698 233864 138443    0  0  0 2461.5229 3903.0757 1928.70050    0 3449.7297 3485.25770 4104.2972 3867.9982 4299.3390 2856.294700 4660.4714 2548.1075    0 603803  12872 5000069
  7151.221991 1142741 233815 138093    0  0  0 2562.7491 3697.8696 1912.54920    0 3438.3418 3606.54580 3970.6620 3770.8228 4366.7123 2693.711400 4567.8907 2599.1311    0 603818  12827 5000068
  7151.496879 1142783 233886 137913    0  0  0 2502.9496 3800.8389 1913.60220    0 3444.2513 3625.81520 3921.5473 3844.2972 4372.7240 2493.432700 4554.1505 2446.6924    0 603808  12275 5000069
  7151.820593 1142848 233902 137643    0  0  0 2468.1193 3748.2016 1986.97420    0 3482.8467 3586.47560 3959.3619 3782.1889 4323.7561 3448.805200 4377.1987 2511.6144    0 603831  11673 5000069
  7152.123187 1142879 233969 137477    0  0  0 2466.6046 3809.4754 2044.28140    0 3391.0411 3435.32860 4045.3111 3671.2919 4226.6534 4051.549000 4508.8834 2655.3648    0 603808  12046 5000068
  7152.392724 1142885 234080 137423    0  0  0 2585.0113 3853.0416 1943.59560    0 3302.4185 3444.42510 4053.2442 3675.5775 4284.6138 4669.417600 4544.2544 2540.2717    0 603786  11750 5000068
  7152.714353 1142929 234175 137341    0  0  0 2498.7600 3718.8307 1904.39220    0 3432.2650 3479.18420 3967.0834 3858.7804 4207.7648 3291.970200 4411.3207 2598.9925    0 603776  11802 5000068
  7153.012686 1143029 233928 137091    0  0  0 2452.9017 3809.1872 1985.07140    0 3375.9236 3406.57000 3927.1619 3727.9160 4136.5772 3654.984100 4481.5269 2507.2883    0 603781  11392 5000068
  7153.283378 1143052 233954 137024    0  0  0 2524.7235 3749.7706 1860.20920    0 3392.9204 3467.48940 3955.9859 3816.4604 4194.6831 3538.715700 4505.5750 2637.7335    0 603755  11947 5000068
  7153.613228 1143097 233936 136987    0  0  0 2455.1328 3904.8026 1868.04970    0 3431.9092 3504.52620 3999.0534 3714.8643 4198.6039 3651.230800 4445.9844 2516.3451    0 603730  11547 5000068
  7153.809634 1143092 233999 137078    0  0  0 2559.3285 3784.7265 1912.51810    0 3293.1272 3494.44710 3884.9621 3629.3545 4228.1367 3768.640800 4430.7508 2550.2220    0 603695  11396 5000068
  7156.121775 1143429 234585 138657    0  0  0 2430.2271 3611.4312 1931.68920    0 3272.0955 3340.46890 3801.6596 3654.3615 4183.1618 3703.626700 4261.9724 2486.8571    0 603698  12504 5000068
  7158.523490 1143627 235247 139677    0  0  0 2397.3857 3584.1441 1940.84230    0 3207.3819 3365.27130 3747.7655 3504.1411 4071.6589 4381.103700 4284.4019 2389.3911    0 603368  13156 5000068
  7161.004090 1143689 235812 140369    0  0  0 2331.0715 3508.2922 1788.67490    0 3195.9514 3150.32840 3799.2686 3522.9856 4029.0269 3738.240000 4038.2028 2448.0532    0 602665  12775 5000069
  7163.581156 1143691 236456 142220    0  0  0 2328.2332 3572.2439 1810.32330    0 3135.5924 3287.51860 3810.8148 3475.7556 3923.4142 3535.111100 4244.0171 2335.7825    0 601803  13369 5000068
  7166.239655 1143687 236530 143552    0  0  0 2451.1963 3555.2073 1880.28060    0 3330.4479 3370.51080 3827.3461 3566.4308 4088.7742 2238.836500 4307.8531 2518.7271    0 600808  12860 5000068
  7168.972691 1143771 236675 144668    0  0  0 2353.7991 3659.6254 1869.99300    0 3286.5380 3459.72680 3852.9657 3600.3909 4168.4730 2404.782900 4388.1202 2486.0575    0 599990  13473 5000069
  7171.812617 1144052 237287 147844    0  0  0 2438.7481 3931.5983 1846.80600    0 3390.6882 3491.91060 4040.3164 3759.6376 4210.5749 2612.160000 4606.6475 2535.5936    0 599668  12952 5000068
  7174.697465 1144449 238182 153299    0  0  0 2610.0689 3889.8923 2061.26110    0 3427.9836 3692.64590 4199.8853 3908.5021 4354.2333 3590.444400 4797.6234 2406.0173    0 599689  12334 5000069
  7177.645374 1144778 239529 159641    0  0  0 2675.4142 4051.7943 2032.97040    0 3497.2048 3777.67880 4083.4180 4177.5522 4505.5584 4119.660800 4813.2975 2461.4573    0 599675  12645 5000069
  7180.731965 1145244 240330 161777    0  0  0 2578.6667 3985.1035 2105.21480    0 3615.0146 3784.03770 4270.1335 4124.1789 4426.8709 3325.720700 4833.1694 2517.7444    0 599757  13150 5000069
  7183.867297 1145819 241190 160160    0  0  0 2645.3948 4049.8858 2128.20140    0 3586.6061 3797.04380 4225.4098 4108.4565 4473.7341 4546.808200 4920.7113 2479.3953    0 600079  12379 5000068
  7187.148467 1146411 242110 155611    0  0  0 2617.0972 4087.2963 2060.07370    0 3610.0129 3793.50240 4297.9225 4096.3652 4566.3998 3141.230800 4887.3691 2436.0342    0 600427  12485 5000068
  7190.474434 1146972 243435 150269    0  0  0 2623.6497 4146.5253 2001.34930    0 3772.7753 3902.80320 4295.5000 4058.5129 4597.8824 4371.377300 4936.1536 2491.4149    0 600807  12167 5000068
  7193.870575 1147534 244797 146980    0  0  0 2616.8043 4219.0608 2219.98290    0 3819.9893 3871.05590 4353.4416 4192.4768 4661.9531 5582.970000 4925.2371 2521.4471    0 601254  12269 5000069
  7197.283245 1148183 245999 150516    0  0  0 2642.0603 4089.4010 2039.18950    0 3741.4419 3871.17930 4276.7103 4257.9697 4471.8239 5794.746700 4923.7468 2505.3681    0 601799  12187 5000068
  7200.774637 1148848 246748 157688    0  0  0 2640.2425 4243.3093 2193.09660    0 3699.9459 3902.05720 4306.6093 4140.2743 4595.9260 5309.783700 4898.0708 2442.3509    0 602162  12506 5000068
  7204.358200 1149364 248101 166695    0  0  0 2586.6353 4219.0423 2129.59940    0 3741.3174 3866.07360 4336.8051 4099.0378 4377.7498 4761.451600 4955.8386 2378.1515    0 602217  12693 5000069
  7208.001144 1149685 249166 170077    0  0  0 2662.3243 4128.2861 1962.09600    0 3639.7037 3846.24320 4320.9949 4239.9102 4612.6237 4508.451600 4882.2079 2451.1632    0 602014  12460 5000068
  7211.668892 1150020 250173 159061    0  0  0 2467.1337 4007.8447 2040.14400    0 3613.8821 3770.58720 4233.5499 4110.3293 4423.3629 5585.960200 4746.2608 2316.4380    0 601645  11872 5000069
  7215.413434 1150527 251015 141351    0  0  0 2443.5246 4108.0894 2001.95770    0 3680.9940 3826.03490 4188.6344 4019.3211 4414.8272 4430.605500 4863.5598 2440.9987    0 601504  12829 5000068
  7219.239991 1151101 252238 131994    0  0  0 2479.4811 4013.4633 2081.08850    0 3408.2778 3729.37540 4141.3936 3920.0680 4352.5716 4644.741000 4798.4162 2334.8551    0 601635  13206 5000069
  7223.198097 1151717 253845 136139    0  0  0 2483.8195 4153.9408 2134.69500    0 3673.3322 3812.84020 4348.5618 4099.2084 4375.9868 4762.564100 4924.3765 2344.5601    0 601951  12472 5000068
  7227.217807 1152328 255187 149938    0  0  0 2461.6179 4045.3494 2011.90480    0 3589.3736 3774.29400 4175.1656 4029.5930 4201.9960 5082.932600 4766.2427 2229.7263    0 602215  11658 5000068
  7231.283235 1152891 256213 165666    0  0  0 2448.0796 3900.5155 2104.70220    0 3483.2560 3701.11310 4201.9462 3973.8252 4200.6774 4369.531500 4785.9412 2287.5393    0 602220  12361 5000068
  7235.456199 1153283 257329 177465    0  0  0 2567.6101 4157.8241 2047.42870    0 3585.2696 3777.94690 4091.0679 4080.9207 4290.6875 4438.839600 4836.4740 2312.5391    0 601776  12533 5000068
  7239.692023 1153650 258784 180415    0  0  0 2494.8012 4134.9809 1967.72730    0 3604.7813 3811.89590 4249.8998 4174.8614 4436.6190 4144.049100 4898.4974 2246.8239    0 601375  12282 5000068
  7244.029912 1154275 260117 175927    0  0  0 2458.9973 4118.7479 2127.97150    0 3549.5688 3886.69160 4300.9259 4131.9038 4434.3520 4205.720100 5023.4262 2386.2454    0 601460  12015 5000068
  7248.452393 1154959 261391 171827    0  0  0 2542.7509 4180.1481 2176.84400    0 3755.5688 3996.46810 4364.1469 4150.2851 4459.6141 4450.789300 4972.4731 2229.4722    0 601680  11855 5000069
  7252.976529 1155680 263057 174459    0  0  0 2458.9435 4181.9012 2040.25930    0 3746.0293 3942.45110 4330.3883 4324.1642 4311.3689 4486.614000 5070.1908 2390.6494    0 602027  11712 5000068
  7257.551829 1156312 265061 177299    0  0  0 2473.1076 4336.2172 2131.44830    0 3827.4204 3943.10810 4412.5494 4341.3659 4546.2280 5439.669300 5116.5161 2179.2142    0 602345  12320 5000069
  7262.193037 1157099 266502 174456    0  0  0 2520.0591 4321.5358 2182.83030    0 3783.7527 3998.56500 4269.5593 4274.0440 4462.4837 4136.378000 5025.7095 2389.4722    0 602742  12925 5000068
  7266.890314 1157784 267929 172086    0  0  0 2528.8671 4359.1080 2097.07870    0 3837.4780 4137.66680 4419.4527 4449.5581 4572.1901 4462.813200 5184.1025 2295.2281    0 602904  12555 5000068
  7271.645558 1158336 269488 167163    0  0  0 2521.1350 4398.7990 2189.40610    0 3923.0075 4162.46600 4444.9433 4440.1237 4621.9711 5358.714600 5115.2674 2227.1354    0 602746  13225 5000068
  7276.542748 1158907 271108 164007    0  0  0 2622.6858 4368.8337 2195.39470    0 3948.6511 4207.65670 4545.0363 4412.8897 4693.0684 5517.168200 5161.8891 2340.2532    0 602652  12120 5000069
  7281.486207 1159544 272711 161382    0  0  0 2610.6539 4533.9457 2290.76510    0 3907.0652 4202.15880 4440.4542 4452.6658 4584.6418 6496.576700 5128.2751 2379.9028    0 602596  12248 5000068
  7286.589990 1160190 274615 158358    0  0  0 2611.7977 4495.4622 2276.48550    0 3869.7526 4166.77080 4618.5557 4466.6158 4482.4257 6837.762600 5234.7991 2248.1042    0 602627  12337 5000068
  7291.738479 1160932 276681 162847    0  0  0 2509.0502 4355.7596 2123.52210    0 3826.8717 4082.80650 4609.7873 4502.8693 4517.9532 4476.696300 5287.4288 2191.5955    0 602942  12342 5000069
  7296.968042 1161522 278343 175034    0  0  0 2529.5168 4517.7925 2187.48540    0 3903.1217 4021.83500 4570.2034 4427.5540 4541.3016 7247.372200 5173.7719 2278.2728    0 602728  12485 5000068
  7302.224095 1162358 280393 185341    0  0  0 2570.9931 4486.3727 2246.41410    0 3829.0690 4115.61370 4504.1613 4385.9874 4407.7424 6436.320000 5120.0160 2178.5057    0 603089  13161 5000068
  7307.565721 1163028 282346 191111    0  0  0 2532.4702 4446.6416 2084.80610    0 3907.1581 4130.11990 4519.0722 4452.7975 4552.8131 6544.550400 5095.6553 2262.4092    0 603106  12505 5000069
  7312.955236 1163718 284173 192268    0  0  0 2548.3097 4433.3260 2247.79120    0 3828.2426 4195.53270 4609.9168 4515.4731 4504.3214 6436.989900 5270.0666 2163.6700    0 603040  12886 5000068
  7318.470777 1164405 285910 193354    0  0  0 2547.2677 4520.5566 2213.96180    0 3888.1510 4076.43160 4483.7080 4336.2785 4546.5264 6194.116400 5320.2246 2223.8960    0 602918  13020 5000069
  7324.045684 1164521 286816 193386    0  0  0 2591.5707 4526.4646 2222.50480    0 3933.3749 4240.00670 4418.0074 4458.1851 4655.5656 3366.909300 5148.9661 2221.9551    0 601612  12365 5000069
  7329.784655 1163395 286593 193702    0  0  0 2492.9948 4355.8627 2209.59380    0 4022.0203 4109.39450 4374.9526 4373.8231 4513.3216 2905.751600 5219.3378 2178.7201    0 596674  12693 5000068
  7335.590718 1165153 290272 199234    0  0  0 2511.7317 4556.6093 2199.62150    0 3948.7906 4079.00200 4374.2893 4427.4179 4474.6881 3010.873700 5320.2584 2045.8244    0 598969  13113 5000068
  7341.410929 1167765 294979 201051    0  0  0 2510.3470 4670.7932 2259.99060    0 3995.7284 4135.90190 4617.3233 4409.0191 4630.4576 3087.712300 5339.5119 2185.5841    0 603960  13342 5000067
  7347.340542 1168504 297017 195092    0  0  0 2566.5342 4612.2982 2225.68110    0 4007.4758 4193.53100 4610.1448 4707.1239 4769.8749 3137.238200 5340.2761 2111.2369    0 603948  13424 5000068
  7353.287010 1169260 299137 189034    0  0  0 2646.0806 4670.4665 2267.89070    0 4023.7285 4168.74570 4652.6287 4622.0637 4630.3065 3108.273800 5352.8304 2115.6959    0 603950  13131 5000069
  7359.295283 1170014 301370 184805    0  0  0 2518.6723 4573.7283 2255.07530    0 4020.0726 4300.23680 4828.1399 4687.3301 4763.0573 3155.923500 5556.0653 2092.7925    0 603989  12895 5000068
  7365.325294 1170786 303628 183363    0  0  0 2677.7052 4541.8143 2280.05470    0 4119.9937 4284.98210 4628.2555 4632.5176 4773.8752 3198.000000 5498.9067 2102.1470    0 603979  12492 5000069
  7371.517456 1171543 305888 188024    0  0  0 2635.3326 4767.5829 2345.51980    0 4196.1274 4317.93710 4702.7868 4642.3016 4740.6662 3190.990600 5441.8823 2098.6695    0 603927  12225 5000068
  7377.765566 1172305 308453 200925    0  0  0 2621.1576 4761.8494 2363.60100    0 4121.0560 4411.09770 4686.7406 4686.4614 4798.4507 3204.742000 5507.9589 2101.8065    0 603954  12609 5000069
  7384.000347 1173116 310925 214652    0  0  0 2552.0991 4656.3932 2303.24840    0 4224.3919 4432.17080 4692.8861 4735.4721 4564.2474 3171.557700 5363.6071 2170.6080    0 603994  11536 5000068
  7390.353485 1173946 313349 217629    0  0  0 2639.1713 4719.8900 2340.57400    0 4253.3429 4323.64380 4745.6801 4895.7242 4778.4137 3188.504200 5509.5791 2089.7718    0 604015  12002 5000068
  7396.843032 1174797 316077 216429    0  0  0 2600.6985 4813.1429 2411.66510    0 4153.8693 4371.35590 4745.6568 4823.3135 4641.7653 3155.061000 5538.0914 2119.7589    0 604120  12910 5000068
  7403.356079 1175591 318551 217488    0  0  0 2651.3183 4814.1844 2299.63670    0 4266.2876 4367.85230 4718.4964 4703.8946 4767.7388 3033.680400 5428.9615 2082.4828    0 604074  12735 5000069
  7409.910819 1176014 320928 218724    0  0  0 2683.2624 4746.5024 2354.44710    0 4509.6584 4500.95140 4743.2275 4817.1136 4691.7244 3239.668500 5701.7389 2056.7272    0 603420  12355 5000069
  7416.459493 1177554 324062 219768    0  0  0 2712.9035 4922.3829 2377.10990    0 4252.8604 4551.09640 4754.6034 4778.1721 4643.8272 3203.466000 5532.5338 1978.3255    0 604680  12361 5000069
  7423.123316 1178333 326817 223206    0  0  0 2685.8978 4960.7933 2419.48470    0 4324.7554 4504.35070 4863.1319 4890.5546 4787.3047 3474.634400 5604.0996 2121.3015    0 604587  12302 5000068
  7429.968059 1179138 329615 226360    0  0  0 2753.2370 4830.3784 2412.92690    0 4267.1972 4597.73260 4762.5845 4791.1818 4785.5323 3313.914900 5663.6659 2127.6760    0 604512  12260 5000068